%OpenBCI Raw EEG Data
%Number of channels = 8
%Sample Rate = 250 Hz
%Board = OpenBCI_GUI$BoardCytonSerial
Sample Index, EXG Channel 0, EXG Channel 1, EXG Channel 2, EXG Channel 3, EXG Channel 4, EXG Channel 5, EXG Channel 6, EXG Channel 7, Accel Channel 0, Accel Channel 1, Accel Channel 2, Other, Other, Other, Other, Other, Other, Other, Analog Channel 0, Analog Channel 1, Analog Channel 2, Timestamp, Other, Timestamp (Formatted)
85.0, 17246.02487635909, 5789.1241656689845, -389.8591267894658, 9321.638562874623, 14618.219687726461, 7490.896581518243, 8361.966414686014, 9892.636226729897, -0.166, 0.16, -0.986, 192.0, 250.0, 208.0, 5.0, 0.0, 225.0, 48.0, 0.0, 0.0, 0.0, 1.6775343604469652E9, 0.0, 2023-02-27 13:46:00.446
86.0, 17263.392181800864, 5792.365168615004, -388.9203535223429, 9321.169176241061, 14605.568600364757, 7491.433023385171, 8361.206455374535, 9899.408805299856, -0.166, 0.16, -0.986, 192.0, 0.0, 0.0, 0.0, 0.0, 0.0, 0.0, 0.0, 0.0, 0.0, 1.6775343604469836E9, 0.0, 2023-02-27 13:46:00.446
87.0, 17282.569978543517, 5791.158174414418, -389.72501632273395, 9323.180833242039, 14608.049643999297, 7496.9539042656315, 8366.3250048548, 9904.52735478012, -0.166, 0.16, -0.986, 192.0, 0.0, 0.0, 0.0, 0.0, 0.0, 0.0, 0.0, 0.0, 0.0, 1.6775343604469907E9, 0.0, 2023-02-27 13:46:00.446
88.0, 17290.2813303806, 5788.699482524334, -390.08264423401886, 9326.623001888156, 14627.897993075609, 7501.938343279165, 8363.821609475805, 9902.62745650142, -0.166, 0.16, -0.986, 192.0, 0.0, 0.0, 0.0, 0.0, 0.0, 0.0, 0.0, 0.0, 0.0, 1.6775343604469976E9, 0.0, 2023-02-27 13:46:00.446
89.0, 17305.748737543672, 5790.264104636205, -389.38974015590435, 9324.879565820644, 14626.042798285818, 7497.6021048548355, 8358.144266384157, 9899.900543677872, -0.166, 0.16, -0.986, 192.0, 0.0, 0.0, 0.0, 0.0, 0.0, 0.0, 0.0, 0.0, 0.0, 1.6775343604470043E9, 0.0, 2023-02-27 13:46:00.447
90.0, 17279.61954827542, 5792.43222384837, -388.562725611058, 9323.918440809064, 14623.718216862468, 7496.9539042656315, 8361.98876643047, 9900.90637217836, -0.166, 0.16, -0.986, 192.0, 0.0, 0.0, 0.0, 0.0, 0.0, 0.0, 0.0, 0.0, 0.0, 1.6775343604470108E9, 0.0, 2023-02-27 13:46:00.447
91.0, 17277.853760463448, 5793.505107582225, -387.93687676630935, 9326.041856532318, 14631.295458232817, 7496.8421455433545, 8367.621406033208, 9905.801404214073, -0.166, 0.16, -0.986, 192.0, 0.0, 0.0, 0.0, 0.0, 0.0, 0.0, 0.0, 0.0, 0.0, 1.6775343604470177E9, 0.0, 2023-02-27 13:46:00.447
92.0, 17302.61949331993, 5792.543982570646, -388.1827459553178, 9326.824167588255, 14628.792062853821, 7507.6380381152685, 8363.352222842244, 9906.159032125359, -0.166, 0.16, -0.986, 192.0, 0.0, 0.0, 0.0, 0.0, 0.0, 0.0, 0.0, 0.0, 0.0, 1.6775343604470258E9, 0.0, 2023-02-27 13:46:00.447
93.0, 17310.777880046116, 5784.162078399906, -391.40139715688196, 9327.092388521718, 14622.84649882871, 7510.1637852387175, 8357.071382650302, 9902.403939056867, -0.166, 0.16, -0.986, 192.0, 0.0, 0.0, 0.0, 0.0, 0.0, 0.0, 0.0, 0.0, 0.0, 1.6775343604470325E9, 0.0, 2023-02-27 13:46:00.447
94.0, 17280.625376775908, 5781.926903954376, -392.49663263519204, 9327.025333288353, 14621.103062761196, 7503.190040968662, 8359.41831581811, 9900.973427411727, -0.166, 0.16, -0.986, 192.0, 0.0, 0.0, 0.0, 0.0, 0.0, 0.0, 0.0, 0.0, 0.0, 1.677534360447039E9, 0.0, 2023-02-27 13:46:00.447
95.0, 17245.287268792068, 5784.81027898911, -391.8484320459881, 9328.187624000027, 14626.378074452648, 7503.234744457573, 8365.877969965693, 9910.271753105135, -0.168, 0.162, -0.984, 192.0, 250.0, 192.0, 5.0, 16.0, 225.0, 64.0, 0.0, 0.0, 0.0, 1.6775343604470456E9, 0.0, 2023-02-27 13:46:00.447
96.0, 17261.201710844245, 5791.33698837006, -390.39556865639315, 9330.42279844556, 14636.056379801796, 7510.253192216539, 8367.017908932914, 9912.953962439771, -0.168, 0.162, -0.984, 192.0, 0.0, 0.0, 0.0, 0.0, 0.0, 0.0, 0.0, 0.0, 0.0, 1.6775343604470527E9, 0.0, 2023-02-27 13:46:00.447
97.0, 17274.970385428715, 5794.421529104892, -390.5520308675803, 9329.908708323086, 14625.327542463248, 7507.258058459528, 8361.36291758572, 9907.678950748319, -0.168, 0.162, -0.984, 192.0, 0.0, 0.0, 0.0, 0.0, 0.0, 0.0, 0.0, 0.0, 0.0, 1.6775343604470592E9, 0.0, 2023-02-27 13:46:00.447
98.0, 17288.940225713282, 5789.302979624627, -391.73667332371156, 9328.254679233394, 14619.13610924913, 7503.078282246385, 8356.423182061098, 9903.409767557356, -0.168, 0.162, -0.984, 192.0, 0.0, 0.0, 0.0, 0.0, 0.0, 0.0, 0.0, 0.0, 0.0, 1.6775343604470656E9, 0.0, 2023-02-27 13:46:00.447
99.0, 17297.433888606298, 5785.436127833859, -391.2002314567842, 9327.405312944093, 14615.381016180638, 7499.8372793003655, 8360.021812918403, 9910.852898460973, -0.168, 0.162, -0.984, 192.0, 0.0, 0.0, 0.0, 0.0, 0.0, 0.0, 0.0, 0.0, 0.0, 1.677534360447072E9, 0.0, 2023-02-27 13:46:00.447
100.0, 17286.682699523295, 5785.503183067225, -391.06612099005235, 9328.433493189037, 14621.125414505652, 7502.318322934905, 8360.513551296419, 9909.891773449395, -0.168, 0.162, -0.984, 192.0, 0.0, 0.0, 0.0, 0.0, 0.0, 0.0, 0.0, 0.0, 0.0, 1.6775343604470787E9, 0.0, 2023-02-27 13:46:00.447
101.0, 17285.36394660043, 5787.045453434641, -391.5802111125244, 9328.388789700126, 14631.720141377467, 7509.493232905059, 8352.824551203794, 9901.86749718994, -0.168, 0.162, -0.984, 192.0, 0.0, 0.0, 0.0, 0.0, 0.0, 0.0, 0.0, 0.0, 0.0, 1.6775343604471486E9, 0.0, 2023-02-27 13:46:00.447
102.0, 17284.76044950014, 5786.218438889795, -392.2954669350943, 9327.852347833199, 14629.753187865399, 7512.935401551176, 8345.202606344534, 9897.330093065511, -0.168, 0.162, -0.984, 192.0, 0.0, 0.0, 0.0, 0.0, 0.0, 0.0, 0.0, 0.0, 0.0, 1.6775343604471557E9, 0.0, 2023-02-27 13:46:00.447
103.0, 17295.891618238882, 5785.436127833859, -389.948533767287, 9328.187624000027, 14611.357702178682, 7504.218221213606, 8354.880911693683, 9905.041444902594, -0.168, 0.162, -0.984, 192.0, 0.0, 0.0, 0.0, 0.0, 0.0, 0.0, 0.0, 0.0, 0.0, 1.6775343604471624E9, 0.0, 2023-02-27 13:46:00.447
104.0, 17289.05198443556, 5787.157212156918, -388.272152933139, 9326.243022232416, 14603.713405574967, 7499.814927555911, 8361.318214096811, 9905.600238513976, -0.168, 0.162, -0.984, 192.0, 0.0, 0.0, 0.0, 0.0, 0.0, 0.0, 0.0, 0.0, 0.0, 1.6775343604471693E9, 0.0, 2023-02-27 13:46:00.447
105.0, 17258.921832909804, 5786.710177267812, -388.9427052667982, 9326.243022232416, 14614.71046384698, 7501.781881067977, 8359.530074540386, 9899.207639599757, -0.17, 0.16, -0.986, 192.0, 250.0, 176.0, 5.0, 0.0, 225.0, 48.0, 0.0, 0.0, 0.0, 1.677534360447176E9, 0.0, 2023-02-27 13:46:00.447
106.0, 17256.79841718655, 5786.196087145339, -388.9203535223429, 9326.600650143702, 14624.902859318598, 7500.239610700562, 8355.596167516253, 9895.832526187007, -0.17, 0.16, -0.986, 192.0, 0.0, 0.0, 0.0, 0.0, 0.0, 0.0, 0.0, 0.0, 0.0, 1.677534360447183E9, 0.0, 2023-02-27 13:46:00.447
107.0, 17256.79841718655, 5785.279665622672, -389.2779814336278, 9325.326600709748, 14625.37224595216, 7501.737177579067, 8360.46884780751, 9901.778090212118, -0.17, 0.16, -0.986, 192.0, 0.0, 0.0, 0.0, 0.0, 0.0, 0.0, 0.0, 0.0, 0.0, 1.6775343604471917E9, 0.0, 2023-02-27 13:46:00.447
108.0, 17264.867396934915, 5781.591627787546, -390.5743826120356, 9324.633696631634, 14620.007827282887, 7495.881020531777, 8361.251158863444, 9907.47778504822, -0.17, 0.16, -0.986, 192.0, 0.0, 0.0, 0.0, 0.0, 0.0, 0.0, 0.0, 0.0, 0.0, 1.6775343604471982E9, 0.0, 2023-02-27 13:46:00.447
109.0, 17290.773068758615, 5779.110584153007, -390.5743826120356, 9323.829033831244, 14611.692978345513, 7489.220200684095, 8358.948929184548, 9908.371854826433, -0.17, 0.16, -0.986, 192.0, 0.0, 0.0, 0.0, 0.0, 0.0, 0.0, 0.0, 0.0, 0.0, 1.6775343604472046E9, 0.0, 2023-02-27 13:46:00.447
110.0, 17278.524312797108, 5783.469174321792, -389.948533767287, 9322.152652997096, 14613.257600457384, 7495.992779254053, 8351.684612236573, 9906.24843910318, -0.17, 0.16, -0.986, 192.0, 0.0, 0.0, 0.0, 0.0, 0.0, 0.0, 0.0, 0.0, 0.0, 1.6775343604472113E9, 0.0, 2023-02-27 13:46:00.447
111.0, 17278.23374011919, 5787.961874957308, -387.109862221463, 9322.823205330755, 14606.954408520987, 7500.530183378481, 8355.663222749617, 9910.048235660583, -0.17, 0.16, -0.986, 192.0, 0.0, 0.0, 0.0, 0.0, 0.0, 0.0, 0.0, 0.0, 0.0, 1.6775343604472177E9, 0.0, 2023-02-27 13:46:00.447
112.0, 17284.246359377667, 5787.492488323747, -388.1827459553178, 9324.253716975894, 14609.189582966517, 7505.827546814388, 8357.965452428514, 9912.10459615047, -0.17, 0.16, -0.986, 192.0, 0.0, 0.0, 0.0, 0.0, 0.0, 0.0, 0.0, 0.0, 0.0, 1.6775343604472241E9, 0.0, 2023-02-27 13:46:00.447
113.0, 17287.979100701705, 5781.233999876261, -390.8873070344099, 9326.801815843799, 14627.450958186504, 7508.86738406031, 8357.049030905848, 9907.3883780704, -0.17, 0.16, -0.986, 192.0, 0.0, 0.0, 0.0, 0.0, 0.0, 0.0, 0.0, 0.0, 0.0, 1.6775343604472308E9, 0.0, 2023-02-27 13:46:00.447
114.0, 17265.157969612836, 5780.027005675674, -391.2896384346054, 9326.332429210237, 14627.786234353332, 7502.318322934905, 8354.657394249129, 9900.951075667272, -0.17, 0.16, -0.986, 192.0, 0.0, 0.0, 0.0, 0.0, 0.0, 0.0, 0.0, 0.0, 0.0, 1.6775343604472375E9, 0.0, 2023-02-27 13:46:00.447
115.0, 17262.095780622458, 5781.90455220992, -390.75319656767806, 9325.170138498563, 14620.03017902734, 7499.39024441126, 8357.339603583767, 9901.688683234297, -0.168, 0.16, -0.98, 192.0, 250.0, 192.0, 5.0, 0.0, 225.0, 96.0, 0.0, 0.0, 0.0, 1.677534360447244E9, 0.0, 2023-02-27 13:46:00.447
116.0, 17272.84696970546, 5782.351587099027, -389.2779814336278, 9326.93592631053, 14622.868850573166, 7501.938343279165, 8358.881873951183, 9909.623552515932, -0.168, 0.16, -0.98, 192.0, 0.0, 0.0, 0.0, 0.0, 0.0, 0.0, 0.0, 0.0, 0.0, 1.677534360447251E9, 0.0, 2023-02-27 13:46:00.447
117.0, 17261.17935909979, 5782.977435943775, -390.4849756342144, 9327.785292599832, 14625.126376763152, 7502.452433401637, 8356.356126827732, 9909.780014727117, -0.168, 0.16, -0.98, 192.0, 0.0, 0.0, 0.0, 0.0, 0.0, 0.0, 0.0, 0.0, 0.0, 1.6775343604472744E9, 0.0, 2023-02-27 13:46:00.447
118.0, 17275.797399973562, 5780.027005675674, -392.51898437964735, 9328.858176333688, 14631.541327421824, 7505.514622392014, 8352.869254692705, 9904.952037924772, -0.168, 0.16, -0.98, 192.0, 0.0, 0.0, 0.0, 0.0, 0.0, 0.0, 0.0, 0.0, 0.0, 1.6775343604472811E9, 0.0, 2023-02-27 13:46:00.447
119.0, 17256.150216597347, 5782.597456288035, -391.2449349456948, 9327.472368177458, 14622.13124300614, 7499.881982789277, 8354.165655871113, 9904.952037924772, -0.168, 0.16, -0.98, 192.0, 0.0, 0.0, 0.0, 0.0, 0.0, 0.0, 0.0, 0.0, 0.0, 1.677534360447288E9, 0.0, 2023-02-27 13:46:00.447
120.0, 17270.32122258201, 5783.469174321792, -390.7979000565887, 9328.679362378045, 14618.242039470917, 7499.636113600268, 8358.41248731762, 9910.696436249786, -0.168, 0.16, -0.98, 192.0, 0.0, 0.0, 0.0, 0.0, 0.0, 0.0, 0.0, 0.0, 0.0, 1.6775343604472947E9, 0.0, 2023-02-27 13:46:00.447
121.0, 17292.427097848307, 5781.032834176163, -391.915487279354, 9330.668667634567, 14631.56367916628, 7507.570982881902, 8356.959623928025, 9910.316456594046, -0.168, 0.16, -0.98, 192.0, 0.0, 0.0, 0.0, 0.0, 0.0, 0.0, 0.0, 0.0, 0.0, 1.6775343604473011E9, 0.0, 2023-02-27 13:46:00.447
122.0, 17280.1783418868, 5779.959950442309, -392.02724600163054, 9329.148749011607, 14615.693940603012, 7504.441738658159, 8355.953795427537, 9905.086148391503, -0.168, 0.16, -0.98, 192.0, 0.0, 0.0, 0.0, 0.0, 0.0, 0.0, 0.0, 0.0, 0.0, 1.677534360447308E9, 0.0, 2023-02-27 13:46:00.447
123.0, 17264.867396934915, 5779.33410159756, -393.658923346868, 9328.36643795567, 14622.310056961782, 7504.128814235785, 8351.595205258753, 9904.19207861329, -0.168, 0.16, -0.98, 192.0, 0.0, 0.0, 0.0, 0.0, 0.0, 0.0, 0.0, 0.0, 0.0, 1.6775343604473145E9, 0.0, 2023-02-27 13:46:00.447
124.0, 17257.200748586743, 5784.81027898911, -392.25076344618367, 9330.601612401202, 14631.362513466182, 7506.743968337056, 8356.490237294465, 9912.305761850568, -0.168, 0.16, -0.98, 192.0, 0.0, 0.0, 0.0, 0.0, 0.0, 0.0, 0.0, 0.0, 0.0, 1.6775343604473212E9, 0.0, 2023-02-27 13:46:00.447
125.0, 17286.973272201216, 5783.536229555158, -392.25076344618367, 9331.94271706852, 14631.451920444004, 7506.654561359234, 8359.306557095833, 9913.982142684716, -0.168, 0.16, -0.98, 192.0, 0.0, 0.0, 0.0, 0.0, 0.0, 0.0, 0.0, 0.0, 0.0, 1.6775343604473276E9, 0.0, 2023-02-27 13:46:00.447
126.0, 17281.362984342933, 5782.150421398928, -392.16135646836244, 9332.054475790796, 14635.452882701504, 7506.766320081511, 8358.121914639702, 9910.182346127314, -0.164, 0.166, -0.984, 192.0, 250.0, 224.0, 5.0, 48.0, 225.0, 64.0, 0.0, 0.0, 0.0, 1.6775343604473343E9, 0.0, 2023-02-27 13:46:00.447
127.0, 17251.545757239553, 5784.05031967763, -392.9883710132088, 9330.087522278729, 14633.865908845177, 7507.191003226162, 8354.255062848933, 9904.81792745804, -0.164, 0.166, -0.984, 192.0, 0.0, 0.0, 0.0, 0.0, 0.0, 0.0, 0.0, 0.0, 0.0, 1.6775343604473412E9, 0.0, 2023-02-27 13:46:00.447
128.0, 17266.744943469163, 5787.112508668007, -392.20605995727306, 9330.04281878982, 14631.027237299353, 7507.302761948438, 8357.674879750595, 9912.05989266156, -0.164, 0.166, -0.984, 192.0, 0.0, 0.0, 0.0, 0.0, 0.0, 0.0, 0.0, 0.0, 0.0, 1.6775343604473488E9, 0.0, 2023-02-27 13:46:00.447
129.0, 17279.440734319774, 5787.850116235032, -390.9096587788652, 9330.087522278729, 14624.724045362957, 7507.593334626357, 8358.79246697336, 9916.463186319255, -0.164, 0.166, -0.984, 192.0, 0.0, 0.0, 0.0, 0.0, 0.0, 0.0, 0.0, 0.0, 0.0, 1.6775343604473555E9, 0.0, 2023-02-27 13:46:00.447
130.0, 17282.23470237669, 5782.57510454358, -392.7201500797451, 9329.640487389623, 14624.120548262663, 7503.011227013019, 8355.931443683081, 9909.668256004841, -0.164, 0.166, -0.984, 192.0, 0.0, 0.0, 0.0, 0.0, 0.0, 0.0, 0.0, 0.0, 0.0, 1.677534360447362E9, 0.0, 2023-02-27 13:46:00.447
131.0, 17282.547626799063, 5779.803488231121, -392.9436675242982, 9328.142920511118, 14615.448071414003, 7504.553497380436, 8350.589376758264, 9908.260096104157, -0.164, 0.166, -0.984, 192.0, 0.0, 0.0, 0.0, 0.0, 0.0, 0.0, 0.0, 0.0, 0.0, 1.6775343604473684E9, 0.0, 2023-02-27 13:46:00.447
132.0, 17265.78381845758, 5787.626598790479, -391.2002314567842, 9330.311039723283, 14620.633676127634, 7505.425215414192, 8355.149132627146, 9915.658523518863, -0.164, 0.166, -0.984, 192.0, 0.0, 0.0, 0.0, 0.0, 0.0, 0.0, 0.0, 0.0, 0.0, 1.6775343604473748E9, 0.0, 2023-02-27 13:46:00.447
133.0, 17260.66526897732, 5788.610075546512, -391.5131558791585, 9331.674496135056, 14624.969914551964, 7504.598200869346, 8358.61365301772, 9917.848994475484, -0.164, 0.166, -0.984, 192.0, 0.0, 0.0, 0.0, 0.0, 0.0, 0.0, 0.0, 0.0, 0.0, 1.6775343604473865E9, 0.0, 2023-02-27 13:46:00.447
134.0, 17272.489341794175, 5783.715043510801, -392.3401704240049, 9331.853310090699, 14631.429568699548, 7502.631247357279, 8354.947966927048, 9911.143471138892, -0.164, 0.166, -0.984, 192.0, 0.0, 0.0, 0.0, 0.0, 0.0, 0.0, 0.0, 0.0, 0.0, 1.6775343604473927E9, 0.0, 2023-02-27 13:46:00.447
135.0, 17271.818789460514, 5780.80931673161, -393.368350668949, 9330.75807461239, 14633.307115233794, 7506.296933447949, 8353.048068648348, 9899.565267511043, -0.164, 0.166, -0.984, 192.0, 0.0, 0.0, 0.0, 0.0, 0.0, 0.0, 0.0, 0.0, 0.0, 1.6775343604473994E9, 0.0, 2023-02-27 13:46:00.447
136.0, 17248.774140927093, 5783.357415599516, -392.7648535686557, 9330.601612401202, 14624.478176173947, 7510.253192216539, 8350.879949436183, 9904.52735478012, -0.17200000000000001, 0.164, -0.986, 192.0, 250.0, 160.0, 5.0, 32.0, 225.0, 48.0, 0.0, 0.0, 0.0, 1.677534360447406E9, 0.0, 2023-02-27 13:46:00.447
137.0, 17249.869376405404, 5786.486659823258, -392.49663263519204, 9330.691019379023, 14615.090443502719, 7505.24640145855, 8352.2210541035, 9913.691570006797, -0.17200000000000001, 0.164, -0.986, 192.0, 0.0, 0.0, 0.0, 0.0, 0.0, 0.0, 0.0, 0.0, 0.0, 1.677534360447413E9, 0.0, 2023-02-27 13:46:00.447
138.0, 17255.233795074677, 5782.128069654474, -393.7036268357786, 9329.975763556453, 14614.84457431371, 7499.591410111358, 8355.12678088269, 9909.981180427216, -0.17200000000000001, 0.164, -0.986, 192.0, 0.0, 0.0, 0.0, 0.0, 0.0, 0.0, 0.0, 0.0, 0.0, 1.6775343604474196E9, 0.0, 2023-02-27 13:46:00.447
139.0, 17274.0763156505, 5782.753918499222, -393.56951636904677, 9329.931060067542, 14618.577315637747, 7500.217258956106, 8350.678783736084, 9903.454471046267, -0.17200000000000001, 0.164, -0.986, 192.0, 0.0, 0.0, 0.0, 0.0, 0.0, 0.0, 0.0, 0.0, 0.0, 1.677534360447426E9, 0.0, 2023-02-27 13:46:00.447
140.0, 17266.78964695807, 5787.447784834836, -393.1001297354853, 9329.595783900713, 14616.208030725484, 7507.191003226162, 8352.51162678142, 9904.057968146559, -0.17200000000000001, 0.164, -0.986, 192.0, 0.0, 0.0, 0.0, 0.0, 0.0, 0.0, 0.0, 0.0, 0.0, 1.6775343604474325E9, 0.0, 2023-02-27 13:46:00.447
141.0, 17256.887824164372, 5786.57606680108, -394.2624204471613, 9328.7017141225, 14606.037986998319, 7494.9645990091085, 8363.03929841987, 9910.048235660583, -0.17200000000000001, 0.164, -0.986, 192.0, 0.0, 0.0, 0.0, 0.0, 0.0, 0.0, 0.0, 0.0, 0.0, 1.6775343604474404E9, 0.0, 2023-02-27 13:46:00.447
142.0, 17273.450466805753, 5783.469174321792, -393.7706820691445, 9328.545251911313, 14600.964141006965, 7493.332921663871, 8359.999461173948, 9913.356293839966, -0.17200000000000001, 0.164, -0.986, 192.0, 0.0, 0.0, 0.0, 0.0, 0.0, 0.0, 0.0, 0.0, 0.0, 1.6775343604474468E9, 0.0, 2023-02-27 13:46:00.447
143.0, 17275.28330985109, 5780.563447542602, -394.3518274249825, 9330.735722867934, 14630.043760543318, 7502.564192123913, 8354.3221180823, 9902.940380923794, -0.17200000000000001, 0.164, -0.986, 192.0, 0.0, 0.0, 0.0, 0.0, 0.0, 0.0, 0.0, 0.0, 0.0, 1.6775343604474535E9, 0.0, 2023-02-27 13:46:00.447
144.0, 17256.954879397737, 5784.720872011289, -393.9271442803317, 9331.160406012585, 14632.301286733305, 7508.576811382391, 8354.545635526852, 9898.425328543823, -0.17200000000000001, 0.164, -0.986, 192.0, 0.0, 0.0, 0.0, 0.0, 0.0, 0.0, 0.0, 0.0, 0.0, 1.67753436044746E9, 0.0, 2023-02-27 13:46:00.447
145.0, 17282.70408901025, 5783.849153977532, -393.45775764677023, 9332.32269672426, 14627.31684771977, 7509.068549760408, 8362.3240425973, 9905.287314091602, -0.17200000000000001, 0.164, -0.986, 192.0, 0.0, 0.0, 0.0, 0.0, 0.0, 0.0, 0.0, 0.0, 0.0, 1.6775343604474664E9, 0.0, 2023-02-27 13:46:00.447
146.0, 17280.200693631257, 5783.804450488621, -393.56951636904677, 9333.395580458115, 14630.267277987872, 7511.7731108395, 8364.805086231838, 9906.315494336546, -0.17, 0.158, -0.988, 192.0, 250.0, 176.0, 4.0, 240.0, 225.0, 32.0, 0.0, 0.0, 0.0, 1.6775343604474728E9, 0.0, 2023-02-27 13:46:00.447
147.0, 17255.725533452696, 5789.213572646806, -391.8484320459881, 9333.32852522475, 14624.947562807509, 7508.53210789348, 8361.139400141168, 9906.337846081, -0.17, 0.158, -0.988, 192.0, 0.0, 0.0, 0.0, 0.0, 0.0, 0.0, 0.0, 0.0, 0.0, 1.67753436044748E9, 0.0, 2023-02-27 13:46:00.447
148.0, 17253.982097385182, 5791.448747092337, -392.13900472390714, 9330.981592056942, 14612.341178934716, 7499.032616499975, 8358.79246697336, 9904.840279202495, -0.17, 0.158, -0.988, 192.0, 0.0, 0.0, 0.0, 0.0, 0.0, 0.0, 0.0, 0.0, 0.0, 1.6775343604474864E9, 0.0, 2023-02-27 13:46:00.447
149.0, 17266.432019046788, 5791.448747092337, -392.20605995727306, 9330.623964145656, 14603.847516041698, 7497.244476943551, 8364.380403087187, 9911.657561261363, -0.17, 0.158, -0.988, 192.0, 0.0, 0.0, 0.0, 0.0, 0.0, 0.0, 0.0, 0.0, 0.0, 1.677534360447506E9, 0.0, 2023-02-27 13:46:00.447
150.0, 17279.03840291958, 5794.667398293901, -391.2896384346054, 9331.070999034762, 14606.999112009897, 7502.0053985125305, 8364.872141465205, 9914.026846173627, -0.17, 0.158, -0.988, 192.0, 0.0, 0.0, 0.0, 0.0, 0.0, 0.0, 0.0, 0.0, 0.0, 1.6775343604475129E9, 0.0, 2023-02-27 13:46:00.447
151.0, 17285.69922276726, 5796.500241339236, -390.12734772292947, 9333.283821735839, 14622.667684873068, 7509.0461980159525, 8363.821609475805, 9905.600238513976, -0.17, 0.158, -0.988, 192.0, 0.0, 0.0, 0.0, 0.0, 0.0, 0.0, 0.0, 0.0, 0.0, 1.6775343604475193E9, 0.0, 2023-02-27 13:46:00.447
152.0, 17307.76039454465, 5795.449709349837, -390.6414378454015, 9331.18275775704, 14607.692016088013, 7502.988875268564, 8355.998498916448, 9901.576924512021, -0.17, 0.158, -0.988, 192.0, 0.0, 0.0, 0.0, 0.0, 0.0, 0.0, 0.0, 0.0, 0.0, 1.677534360447526E9, 0.0, 2023-02-27 13:46:00.447
153.0, 17285.52040881162, 5794.488584338258, -390.75319656767806, 9332.032124046342, 14605.36743466466, 7507.660389859723, 8359.41831581811, 9913.691570006797, -0.17, 0.158, -0.988, 192.0, 0.0, 0.0, 0.0, 0.0, 0.0, 0.0, 0.0, 0.0, 0.0, 1.6775343604475324E9, 0.0, 2023-02-27 13:46:00.447
154.0, 17272.735210983185, 5797.461366350814, -389.65796108936803, 9333.395580458115, 14618.756129593388, 7510.700227105645, 8363.687499009073, 9920.464148576755, -0.17, 0.158, -0.988, 192.0, 0.0, 0.0, 0.0, 0.0, 0.0, 0.0, 0.0, 0.0, 0.0, 1.6775343604475389E9, 0.0, 2023-02-27 13:46:00.447
155.0, 17273.450466805753, 5796.075558194585, -388.4956703776921, 9333.373228713659, 14610.307170189282, 7508.688570104668, 8361.720545497006, 9916.86551771945, -0.17, 0.158, -0.988, 192.0, 0.0, 0.0, 0.0, 0.0, 0.0, 0.0, 0.0, 0.0, 0.0, 1.6775343604475455E9, 0.0, 2023-02-27 13:46:00.447
156.0, 17264.912100423826, 5796.857869250521, -389.38974015590435, 9333.060304291284, 14617.482080159436, 7508.688570104668, 8357.808990217327, 9906.159032125359, -0.168, 0.16, -0.99, 192.0, 250.0, 192.0, 5.0, 0.0, 225.0, 16.0, 0.0, 0.0, 0.0, 1.677534360447552E9, 0.0, 2023-02-27 13:46:00.447
157.0, 17281.2288738762, 5795.159136671918, -390.529679123125, 9332.836786846732, 14627.450958186504, 7513.673009118201, 8359.530074540386, 9912.037540917105, -0.168, 0.16, -0.99, 192.0, 0.0, 0.0, 0.0, 0.0, 0.0, 0.0, 0.0, 0.0, 0.0, 1.677534360447559E9, 0.0, 2023-02-27 13:46:00.447
158.0, 17293.94701647127, 5795.919095983398, -389.8591267894658, 9333.283821735839, 14622.153594750596, 7519.4397591876705, 8365.833266476782, 9914.92091595184, -0.168, 0.16, -0.99, 192.0, 0.0, 0.0, 0.0, 0.0, 0.0, 0.0, 0.0, 0.0, 0.0, 1.6775343604475656E9, 0.0, 2023-02-27 13:46:00.447
159.0, 17264.442713790264, 5795.382654116471, -389.9708855117423, 9333.70850488049, 14623.13707150663, 7522.211375500128, 8363.441629820065, 9910.852898460973, -0.168, 0.16, -0.99, 192.0, 0.0, 0.0, 0.0, 0.0, 0.0, 0.0, 0.0, 0.0, 0.0, 1.6775343604475722E9, 0.0, 2023-02-27 13:46:00.447
160.0, 17257.759542198128, 5796.4555378503255, -390.39556865639315, 9333.484987435935, 14618.8008330823, 7510.834337572377, 8355.372650071698, 9907.947171681782, -0.168, 0.16, -0.99, 192.0, 0.0, 0.0, 0.0, 0.0, 0.0, 0.0, 0.0, 0.0, 0.0, 1.677534360447579E9, 0.0, 2023-02-27 13:46:00.447
161.0, 17272.04230690507, 5797.640180306456, -389.5238506226362, 9335.18372001454, 14626.869812830666, 7512.175442239695, 8357.496065794952, 9915.412654329855, -0.168, 0.16, -0.99, 192.0, 0.0, 0.0, 0.0, 0.0, 0.0, 0.0, 0.0, 0.0, 0.0, 1.6775343604475853E9, 0.0, 2023-02-27 13:46:00.447
162.0, 17281.765315743127, 5794.533287827169, -389.70266457827864, 9334.289650236327, 14625.618115141167, 7508.353293937838, 8364.693327509562, 9919.279506120623, -0.168, 0.16, -0.99, 192.0, 0.0, 0.0, 0.0, 0.0, 0.0, 0.0, 0.0, 0.0, 0.0, 1.677534360447592E9, 0.0, 2023-02-27 13:46:00.447
163.0, 17276.825580218505, 5791.918133725898, -389.45679538927027, 9335.295478736816, 14632.65891464459, 7511.661352117223, 8364.715679254017, 9913.624514773432, -0.168, 0.16, -0.99, 192.0, 0.0, 0.0, 0.0, 0.0, 0.0, 0.0, 0.0, 0.0, 0.0, 1.6775343604475987E9, 0.0, 2023-02-27 13:46:00.447
164.0, 17271.774085971607, 5792.4098721039145, -389.6132576004574, 9333.32852522475, 14616.163327236573, 7508.86738406031, 8361.854655963738, 9907.924819937327, -0.168, 0.16, -0.99, 192.0, 0.0, 0.0, 0.0, 0.0, 0.0, 0.0, 0.0, 0.0, 0.0, 1.6775343604476051E9, 0.0, 2023-02-27 13:46:00.447
165.0, 17255.680829963785, 5794.823860505087, -388.8085948000664, 9333.730856624945, 14609.390748666616, 7513.069512017908, 8362.055821663836, 9910.025883916127, -0.168, 0.16, -0.99, 192.0, 0.0, 0.0, 0.0, 0.0, 0.0, 0.0, 0.0, 0.0, 0.0, 1.6775343604476218E9, 0.0, 2023-02-27 13:46:00.447
166.0, 17257.021934631102, 5792.767500015199, -390.1496994673848, 9336.010734559386, 14633.307115233794, 7514.187099240673, 8367.017908932914, 9915.278543863124, -0.166, 0.16, -0.99, 192.0, 250.0, 208.0, 5.0, 0.0, 225.0, 16.0, 0.0, 0.0, 0.0, 1.6775343604476285E9, 0.0, 2023-02-27 13:46:00.447
167.0, 17259.592385243464, 5787.514840068203, -391.1555279678736, 9336.390714215126, 14638.246850758416, 7515.081169018886, 8364.045126920359, 9911.076415905525, -0.166, 0.16, -0.99, 192.0, 0.0, 0.0, 0.0, 0.0, 0.0, 0.0, 0.0, 0.0, 0.0, 1.677534360447636E9, 0.0, 2023-02-27 13:46:00.447
168.0, 17250.02583861659, 5786.821935990088, -391.98254251271993, 9336.79304561532, 14639.409141470092, 7520.892622577265, 8357.250196605944, 9902.515697779143, -0.166, 0.16, -0.99, 192.0, 0.0, 0.0, 0.0, 0.0, 0.0, 0.0, 0.0, 0.0, 0.0, 1.6775343604476423E9, 0.0, 2023-02-27 13:46:00.447
169.0, 17250.808149672528, 5787.671302279389, -392.54133612410266, 9335.295478736816, 14632.636562900134, 7525.385323212782, 8354.79150471586, 9901.711034978753, -0.166, 0.16, -0.99, 192.0, 0.0, 0.0, 0.0, 0.0, 0.0, 0.0, 0.0, 0.0, 0.0, 1.6775343604476492E9, 0.0, 2023-02-27 13:46:00.447
170.0, 17242.42624550179, 5784.452651077825, -393.0330745021194, 9335.206071758994, 14628.792062853821, 7526.145282524262, 8357.339603583767, 9911.545802539087, -0.166, 0.16, -0.99, 192.0, 0.0, 0.0, 0.0, 0.0, 0.0, 0.0, 0.0, 0.0, 0.0, 1.6775343604476557E9, 0.0, 2023-02-27 13:46:00.447
171.0, 17239.69933267824, 5782.95508419932, -393.81538555805514, 9335.675458392556, 14628.054455286796, 7527.799311613955, 8359.731240240484, 9908.729482737719, -0.166, 0.16, -0.99, 192.0, 0.0, 0.0, 0.0, 0.0, 0.0, 0.0, 0.0, 0.0, 0.0, 1.6775343604476628E9, 0.0, 2023-02-27 13:46:00.447
172.0, 17230.356303495922, 5785.570238300591, -392.92131577984287, 9334.602574658702, 14617.504431903892, 7523.396017956259, 8356.378478572187, 9909.221221115735, -0.166, 0.16, -0.99, 192.0, 0.0, 0.0, 0.0, 0.0, 0.0, 0.0, 0.0, 0.0, 0.0, 1.6775343604476695E9, 0.0, 2023-02-27 13:46:00.447
173.0, 17211.849059086926, 5780.742261498244, -394.6647518473568, 9333.32852522475, 14609.435452155525, 7518.433930687182, 8353.048068648348, 9910.092939149492, -0.166, 0.16, -0.99, 192.0, 0.0, 0.0, 0.0, 0.0, 0.0, 0.0, 0.0, 0.0, 0.0, 1.677534360447676E9, 0.0, 2023-02-27 13:46:00.447
174.0, 17195.30876819, 5777.948293441331, -395.80469081457744, 9335.049609547808, 14611.983551023432, 7520.780863854989, 8355.216187860511, 9918.608953786965, -0.166, 0.16, -0.99, 192.0, 0.0, 0.0, 0.0, 0.0, 0.0, 0.0, 0.0, 0.0, 0.0, 1.6775343604476824E9, 0.0, 2023-02-27 13:46:00.447
175.0, 17204.875314816873, 5779.222342875283, -394.9776762697311, 9337.284783993338, 14613.302303946293, 7519.7750353545, 8358.61365301772, 9918.474843320233, -0.166, 0.16, -0.99, 192.0, 0.0, 0.0, 0.0, 0.0, 0.0, 0.0, 0.0, 0.0, 0.0, 1.6775343604476888E9, 0.0, 2023-02-27 13:46:00.447
176.0, 17203.377747938364, 5767.2865113361495, -397.70458909327857, 9340.592842172724, 14634.156481523096, 7528.0675325474185, 8352.46692329251, 9908.796537971084, -0.164, 0.158, -0.982, 192.0, 250.0, 224.0, 4.0, 240.0, 225.0, 80.0, 0.0, 0.0, 0.0, 1.6775343604476955E9, 0.0, 2023-02-27 13:46:00.447
177.0, 17172.621747567864, 5754.367203040982, -400.9008885503875, 9341.531615439846, 14634.558812923291, 7531.621459915813, 8347.12485636769, 9897.598313998975, -0.164, 0.158, -0.982, 192.0, 0.0, 0.0, 0.0, 0.0, 0.0, 0.0, 0.0, 0.0, 0.0, 1.6775343604477022E9, 0.0, 2023-02-27 13:46:00.447
178.0, 17141.709284986173, 5756.110639108496, -399.5150803941584, 9341.464560206481, 14628.121510520163, 7539.668087919723, 8352.93630992607, 9903.253305346168, -0.164, 0.158, -0.982, 192.0, 0.0, 0.0, 0.0, 0.0, 0.0, 0.0, 0.0, 0.0, 0.0, 1.6775343604477088E9, 0.0, 2023-02-27 13:46:00.447
179.0, 17095.91056059725, 5755.216569330284, -397.90575479337633, 9342.89507185162, 14635.162310023585, 7542.39500074327, 8353.65156574864, 9909.847069960484, -0.164, 0.158, -0.982, 192.0, 0.0, 0.0, 0.0, 0.0, 0.0, 0.0, 0.0, 0.0, 0.0, 1.6775343604477153E9, 0.0, 2023-02-27 13:46:00.447
180.0, 17073.447057419668, 5744.107752335996, -401.75025483968915, 9345.80079863081, 14659.592766713235, 7543.087904821385, 8348.13068486818, 9905.354369324967, -0.164, 0.158, -0.982, 192.0, 0.0, 0.0, 0.0, 0.0, 0.0, 0.0, 0.0, 0.0, 0.0, 1.6775343604477215E9, 0.0, 2023-02-27 13:46:00.447
181.0, 17077.112743510337, 5742.386668012938, -403.2478217181947, 9344.884377108143, 14649.7579991529, 7550.084000835896, 8342.922728410093, 9900.682854733808, -0.164, 0.158, -0.982, 192.0, 0.0, 0.0, 0.0, 0.0, 0.0, 0.0, 0.0, 0.0, 0.0, 1.6775343604477556E9, 0.0, 2023-02-27 13:46:00.447
182.0, 17069.982537029093, 5741.202025556806, -402.68902810681203, 9344.169121285573, 14643.119531049673, 7546.641832189779, 8345.94021391156, 9904.281485591113, -0.164, 0.158, -0.982, 192.0, 0.0, 0.0, 0.0, 0.0, 0.0, 0.0, 0.0, 0.0, 0.0, 1.6775343604477627E9, 0.0, 2023-02-27 13:46:00.447
183.0, 17050.290650163966, 5741.023211601164, -401.884365306421, 9345.018487574875, 14651.412028242592, 7548.4970269795695, 8347.32602206779, 9904.48265129121, -0.164, 0.158, -0.982, 192.0, 0.0, 0.0, 0.0, 0.0, 0.0, 0.0, 0.0, 0.0, 0.0, 1.67753436044777E9, 0.0, 2023-02-27 13:46:00.447
184.0, 17046.647315817754, 5741.447894745815, -402.2643449621612, 9343.722086396467, 14645.265298517383, 7552.520340981525, 8346.99074590096, 9898.782956455107, -0.164, 0.158, -0.982, 192.0, 0.0, 0.0, 0.0, 0.0, 0.0, 0.0, 0.0, 0.0, 0.0, 1.677534360447777E9, 0.0, 2023-02-27 13:46:00.447
185.0, 17051.51999610901, 5734.831778387043, -404.83479557452154, 9345.353763741705, 14653.267223032382, 7557.102448594863, 8339.547614997342, 9892.211543585247, -0.164, 0.158, -0.982, 192.0, 0.0, 0.0, 0.0, 0.0, 0.0, 0.0, 0.0, 0.0, 0.0, 1.677534360447784E9, 0.0, 2023-02-27 13:46:00.447
186.0, 17074.85521732035, 5731.702534163301, -404.3207054520495, 9345.554929441802, 14652.976650354463, 7555.470771249626, 8342.542748754353, 9893.284427319102, -0.168, 0.162, -0.986, 192.0, 250.0, 192.0, 5.0, 16.0, 225.0, 48.0, 0.0, 0.0, 0.0, 1.677534360447791E9, 0.0, 2023-02-27 13:46:00.447
187.0, 17058.24787119006, 5735.815255143078, -401.6831996063232, 9345.13024629715, 14647.388714240637, 7551.49216073658, 8351.50579828093, 9906.069625147536, -0.168, 0.162, -0.986, 192.0, 0.0, 0.0, 0.0, 0.0, 0.0, 0.0, 0.0, 0.0, 0.0, 1.6775343604477985E9, 0.0, 2023-02-27 13:46:00.447
188.0, 17043.786292527475, 5733.870653375466, -401.6831996063232, 9344.839673619232, 14644.505339205902, 7546.686535678689, 8347.169559856602, 9901.733386723208, -0.168, 0.162, -0.986, 192.0, 0.0, 0.0, 0.0, 0.0, 0.0, 0.0, 0.0, 0.0, 0.0, 1.6775343604478056E9, 0.0, 2023-02-27 13:46:00.447
189.0, 17032.3198476219, 5731.836644630032, -403.47133916274777, 9343.27505150736, 14637.777464124854, 7538.304631507949, 8338.586489985764, 9894.692587219786, -0.168, 0.162, -0.986, 192.0, 0.0, 0.0, 0.0, 0.0, 0.0, 0.0, 0.0, 0.0, 0.0, 1.6775343604478128E9, 0.0, 2023-02-27 13:46:00.447
190.0, 17027.38011209728, 5729.020324828663, -403.5830978850243, 9342.313926495783, 14630.893126832621, 7540.003364086553, 8336.038391117858, 9896.927761665316, -0.168, 0.162, -0.986, 192.0, 0.0, 0.0, 0.0, 0.0, 0.0, 0.0, 0.0, 0.0, 0.0, 1.6775343604478197E9, 0.0, 2023-02-27 13:46:00.447
191.0, 17013.387920068257, 5727.99214458372, -401.8620135619657, 9341.889243351132, 14620.499565660903, 7537.96935534112, 8340.50874000892, 9901.800441956573, -0.168, 0.162, -0.986, 192.0, 0.0, 0.0, 0.0, 0.0, 0.0, 0.0, 0.0, 0.0, 0.0, 1.6775343604478276E9, 0.0, 2023-02-27 13:46:00.447
192.0, 17016.13718463626, 5732.730714408245, -401.2585164616724, 9342.962127084986, 14620.790138338822, 7541.813855387432, 8342.073362120791, 9903.409767557356, -0.168, 0.162, -0.986, 192.0, 0.0, 0.0, 0.0, 0.0, 0.0, 0.0, 0.0, 0.0, 0.0, 1.6775343604478347E9, 0.0, 2023-02-27 13:46:00.447
193.0, 17073.312946952934, 5733.915356864376, -403.11371125146286, 9343.766789885378, 14637.37513272466, 7544.205492044151, 8338.675896963585, 9900.4369855448, -0.168, 0.162, -0.986, 192.0, 0.0, 0.0, 0.0, 0.0, 0.0, 0.0, 0.0, 0.0, 0.0, 1.6775343604478412E9, 0.0, 2023-02-27 13:46:00.447
194.0, 17063.56758637042, 5739.391534255927, -401.79495832859976, 9344.169121285573, 14638.649182158611, 7538.304631507949, 8336.17250158459, 9902.739215223697, -0.168, 0.162, -0.986, 192.0, 0.0, 0.0, 0.0, 0.0, 0.0, 0.0, 0.0, 0.0, 0.0, 1.6775343604478478E9, 0.0, 2023-02-27 13:46:00.447
195.0, 17021.99334168355, 5741.023211601164, -401.8620135619657, 9342.783313129345, 14640.124397292662, 7539.668087919723, 8339.346449297243, 9908.505965293165, -0.168, 0.162, -0.986, 192.0, 0.0, 0.0, 0.0, 0.0, 0.0, 0.0, 0.0, 0.0, 0.0, 1.6775343604478545E9, 0.0, 2023-02-27 13:46:00.447
196.0, 17059.365458412824, 5741.47024649027, -400.72207459474504, 9345.107894552695, 14650.674420675567, 7551.156884569751, 8342.252176076434, 9909.109462393459, -0.168, 0.164, -0.984, 192.0, 250.0, 192.0, 5.0, 32.0, 225.0, 64.0, 0.0, 0.0, 0.0, 1.6775343604478636E9, 0.0, 2023-02-27 13:46:00.447
197.0, 17091.52961868401, 5745.605319214502, -401.70555135077853, 9343.56562418528, 14643.678324661056, 7552.050954347963, 8342.319231309799, 9903.186250112802, -0.168, 0.164, -0.984, 192.0, 0.0, 0.0, 0.0, 0.0, 0.0, 0.0, 0.0, 0.0, 0.0, 1.6775343604478793E9, 0.0, 2023-02-27 13:46:00.447
198.0, 17083.66180463574, 5746.499388992714, -402.37610368443774, 9341.464560206481, 14631.541327421824, 7543.356125754849, 8340.195815586545, 9894.513773264143, -0.168, 0.164, -0.984, 192.0, 0.0, 0.0, 0.0, 0.0, 0.0, 0.0, 0.0, 0.0, 0.0, 1.677534360447886E9, 0.0, 2023-02-27 13:46:00.447
199.0, 17096.42465071972, 5750.5003512502135, -401.5043856506808, 9342.179816029051, 14639.90087984811, 7544.138436810785, 8344.152074355135, 9906.539011781098, -0.168, 0.164, -0.984, 192.0, 0.0, 0.0, 0.0, 0.0, 0.0, 0.0, 0.0, 0.0, 0.0, 1.6775343604478946E9, 0.0, 2023-02-27 13:46:00.447
200.0, 17109.701586926174, 5756.3118048085935, -400.74442633920034, 9340.659897406089, 14634.670571645567, 7541.545634453969, 8347.79540870135, 9913.15512813987, -0.168, 0.164, -0.984, 192.0, 0.0, 0.0, 0.0, 0.0, 0.0, 0.0, 0.0, 0.0, 0.0, 1.6775343604479012E9, 0.0, 2023-02-27 13:46:00.447
201.0, 17102.370214744835, 5760.42452578837, -399.5150803941584, 9339.452903205503, 14618.242039470917, 7531.0626663044295, 8348.376554057188, 9908.86359320445, -0.168, 0.164, -0.984, 192.0, 0.0, 0.0, 0.0, 0.0, 0.0, 0.0, 0.0, 0.0, 0.0, 1.6775343604479077E9, 0.0, 2023-02-27 13:46:00.447
202.0, 17127.650037723786, 5764.000804901219, -399.58213562752434, 9337.105970037695, 14602.55111486329, 7525.608840657335, 8346.297841822845, 9905.756700725164, -0.168, 0.164, -0.984, 192.0, 0.0, 0.0, 0.0, 0.0, 0.0, 0.0, 0.0, 0.0, 0.0, 1.6775343604479144E9, 0.0, 2023-02-27 13:46:00.447
203.0, 17151.231128124135, 5767.040642147141, -399.24685946069474, 9338.961164827486, 14615.001036524896, 7530.280355248494, 8352.355164570232, 9909.087110649003, -0.168, 0.164, -0.984, 192.0, 0.0, 0.0, 0.0, 0.0, 0.0, 0.0, 0.0, 0.0, 0.0, 1.6775343604479213E9, 0.0, 2023-02-27 13:46:00.447
204.0, 17153.242785125112, 5765.833647946554, -399.31391469406066, 9340.481083450448, 14627.339199464226, 7531.867329104821, 8355.149132627146, 9912.283410106113, -0.168, 0.164, -0.984, 192.0, 0.0, 0.0, 0.0, 0.0, 0.0, 0.0, 0.0, 0.0, 0.0, 1.6775343604479277E9, 0.0, 2023-02-27 13:46:00.447
205.0, 17176.287433658534, 5762.682051978356, -400.5656123835579, 9339.6540689056, 14623.159423251085, 7526.30174473545, 8351.304632580834, 9911.076415905525, -0.168, 0.164, -0.984, 192.0, 0.0, 0.0, 0.0, 0.0, 0.0, 0.0, 0.0, 0.0, 0.0, 1.677534360447934E9, 0.0, 2023-02-27 13:46:00.447
206.0, 17180.78013429405, 5767.733546225256, -400.11857749445176, 9339.095275294218, 14617.683245859535, 7526.413503457726, 8346.566062756308, 9906.091976891992, -0.168, 0.164, -0.984, 192.0, 0.0, 0.0, 0.0, 0.0, 0.0, 0.0, 0.0, 0.0, 0.0, 1.6775343604479406E9, 0.0, 2023-02-27 13:46:00.447
207.0, 17166.54207307602, 5772.04743290513, -398.5539553825802, 9338.067095049273, 14610.418928911558, 7528.268698247516, 8352.399868059143, 9908.707130993263, -0.17, 0.166, -0.986, 192.0, 250.0, 176.0, 5.0, 48.0, 225.0, 48.0, 0.0, 0.0, 0.0, 1.6775343604479473E9, 0.0, 2023-02-27 13:46:00.447
0.0, 0.0, 0.0, 0.0, 0.0, 0.0, 0.0, 0.0, 0.0, -0.138, 0.098, -1.002, 192.0, 251.0, 176.0, 3.0, 16.0, 224.0, 176.0, 0.0, 0.0, 0.0, 1.6775343605482724E9, 0.0, 2023-02-27 13:46:00.548
1.0, 12042.985802052714, 6727.8303775585155, -270.5902183759473, 6797.925448170358, 9198.256933481329, 5868.696375929878, 7475.607988310813, 9888.47880226121, -0.138, 0.098, -1.002, 192.0, 0.0, 0.0, 0.0, 0.0, 0.0, 0.0, 0.0, 0.0, 0.0, 1.677534361034432E9, 0.0, 2023-02-27 13:46:01.034
2.0, 12056.799180126094, 6725.774017068627, -270.41140442030485, 6798.372483059465, 9203.643703895057, 5865.410669494948, 7476.569113322391, 9895.206677342258, -0.138, 0.098, -1.002, 192.0, 0.0, 0.0, 0.0, 0.0, 0.0, 0.0, 0.0, 0.0, 0.0, 1.6775343610344625E9, 0.0, 2023-02-27 13:46:01.034
3.0, 12036.660258371861, 6727.897432791881, -269.6067416199138, 6799.445366793319, 9210.170413276008, 5867.489381729291, 7478.960749979109, 9901.487517534199, -0.138, 0.098, -1.002, 192.0, 0.0, 0.0, 0.0, 0.0, 0.0, 0.0, 0.0, 0.0, 0.0, 1.6775343610344813E9, 0.0, 2023-02-27 13:46:01.034
4.0, 12028.43481641231, 6725.483444390708, -270.277293953573, 6798.73011097075, 9211.511517943325, 5873.233780054305, 7476.189133666651, 9896.458375031754, -0.138, 0.098, -1.002, 192.0, 0.0, 0.0, 0.0, 0.0, 0.0, 0.0, 0.0, 0.0, 0.0, 1.6775343610345037E9, 0.0, 2023-02-27 13:46:01.034
5.0, 12020.321133175032, 6726.489272891196, -270.67962535376853, 6796.763157458682, 9205.25302949584, 5868.137582318495, 7472.322281875883, 9888.724671450218, -0.138, 0.098, -1.002, 192.0, 0.0, 0.0, 0.0, 0.0, 0.0, 0.0, 0.0, 0.0, 0.0, 1.6775343610345683E9, 0.0, 2023-02-27 13:46:01.034
6.0, 12026.199641966778, 6726.444569402286, -270.47845965367077, 6797.545468514618, 9211.958552832431, 5865.522428217224, 7472.925778976176, 9890.065776117537, -0.138, 0.098, -1.002, 192.0, 0.0, 0.0, 0.0, 0.0, 0.0, 0.0, 0.0, 0.0, 0.0, 1.677534361034578E9, 0.0, 2023-02-27 13:46:01.034
7.0, 12035.252098471177, 6726.623383357929, -268.57856137496964, 6800.071215638068, 9215.646590667557, 5870.551570719668, 7478.804287767922, 9896.748947709673, -0.138, 0.098, -1.002, 192.0, 0.0, 0.0, 0.0, 0.0, 0.0, 0.0, 0.0, 0.0, 0.0, 1.6775343610345879E9, 0.0, 2023-02-27 13:46:01.034
8.0, 12028.993610023692, 6727.964488025247, -267.8633055523998, 6799.646532493417, 9210.438634209471, 5869.344576519082, 7479.206619168118, 9896.860706431951, -0.124, 0.064, -1.008, 192.0, 252.0, 32.0, 2.0, 0.0, 224.0, 128.0, 0.0, 0.0, 0.0, 1.6775343610345972E9, 0.0, 2023-02-27 13:46:01.034
9.0, 12026.646676855884, 6727.271583947133, -268.1538782303188, 6798.238372592732, 9208.44932895295, 5865.880056128509, 7474.959787721609, 9891.205715084758, -0.124, 0.064, -1.008, 192.0, 0.0, 0.0, 0.0, 0.0, 0.0, 0.0, 0.0, 0.0, 0.0, 1.6775343610346076E9, 0.0, 2023-02-27 13:46:01.034
10.0, 12033.195737981288, 6728.232708958711, -267.3715671743831, 6798.0372068926345, 9202.7719858613, 5864.002509594263, 7476.613816811302, 9891.630398229408, -0.124, 0.064, -1.008, 192.0, 0.0, 0.0, 0.0, 0.0, 0.0, 0.0, 0.0, 0.0, 0.0, 1.6775343610346177E9, 0.0, 2023-02-27 13:46:01.034
11.0, 12048.66314514436, 6729.193833970289, -266.7904218185451, 6799.020683648669, 9201.944971316454, 5865.343614261582, 7482.939360492153, 9899.900543677872, -0.124, 0.064, -1.008, 192.0, 0.0, 0.0, 0.0, 0.0, 0.0, 0.0, 0.0, 0.0, 0.0, 1.677534361034627E9, 0.0, 2023-02-27 13:46:01.034
12.0, 12048.48433118872, 6728.411522914354, -266.96923577418755, 6797.67957898135, 9203.420186450505, 5862.594349693579, 7481.1065174468185, 9901.91220067885, -0.124, 0.064, -1.008, 192.0, 0.0, 0.0, 0.0, 0.0, 0.0, 0.0, 0.0, 0.0, 0.0, 1.6775343610346365E9, 0.0, 2023-02-27 13:46:01.034
13.0, 12045.131569520423, 6726.310458935554, -268.69032009724623, 6795.48910802473, 9199.508631170826, 5866.72942241781, 7474.021014454486, 9893.843220930485, -0.124, 0.064, -1.008, 192.0, 0.0, 0.0, 0.0, 0.0, 0.0, 0.0, 0.0, 0.0, 0.0, 1.6775343610346456E9, 0.0, 2023-02-27 13:46:01.034
14.0, 12040.169482251345, 6728.500929892174, -268.4891543971484, 6797.165488858877, 9209.164584775519, 5869.433983496903, 7474.043366198942, 9891.362177295945, -0.124, 0.064, -1.008, 192.0, 0.0, 0.0, 0.0, 0.0, 0.0, 0.0, 0.0, 0.0, 0.0, 1.6775343610346549E9, 0.0, 2023-02-27 13:46:01.034
15.0, 12059.302575505088, 6727.1374734804, -267.729195085668, 6799.87004993797, 9212.58440167718, 5872.563227720646, 7482.67113955869, 9895.854877931462, -0.124, 0.064, -1.008, 192.0, 0.0, 0.0, 0.0, 0.0, 0.0, 0.0, 0.0, 0.0, 0.0, 1.6775343610346646E9, 0.0, 2023-02-27 13:46:01.034
16.0, 12033.732179848217, 6726.735142080205, -268.1762299747741, 6801.4346720498415, 9215.803052878744, 5877.905294645464, 7481.218276169095, 9898.134755865904, -0.124, 0.064, -1.008, 192.0, 0.0, 0.0, 0.0, 0.0, 0.0, 0.0, 0.0, 0.0, 0.0, 1.6775343610346744E9, 0.0, 2023-02-27 13:46:01.034
17.0, 12017.437758140297, 6728.1209502364345, -268.24328520814004, 6799.937105171336, 9212.986733077376, 5876.49713474478, 7475.4738778440815, 9893.820869186029, -0.124, 0.064, -1.008, 192.0, 0.0, 0.0, 0.0, 0.0, 0.0, 0.0, 0.0, 0.0, 0.0, 1.6775343610346837E9, 0.0, 2023-02-27 13:46:01.034
18.0, 12018.734159318705, 6729.640868859395, -267.438622407749, 6799.199497604311, 9204.336607973171, 5874.574884721624, 7477.5302383339695, 9890.021072628626, -0.114, 0.052000000000000005, -1.004, 192.0, 252.0, 112.0, 1.0, 160.0, 224.0, 160.0, 0.0, 0.0, 0.0, 1.6775343610346925E9, 0.0, 2023-02-27 13:46:01.034
19.0, 12030.513528646652, 6728.679743847817, -267.97506427467636, 6799.713587726783, 9203.353131217138, 5873.457297498858, 7481.799421524933, 9894.692587219786, -0.114, 0.052000000000000005, -1.004, 192.0, 0.0, 0.0, 0.0, 0.0, 0.0, 0.0, 0.0, 0.0, 0.0, 1.6775343610347023E9, 0.0, 2023-02-27 13:46:01.034
20.0, 12031.698171102784, 6725.729313579716, -268.82443056397807, 6801.278209838654, 9207.73407313038, 5869.992777108286, 7483.945188992642, 9896.972465154227, -0.114, 0.052000000000000005, -1.004, 192.0, 0.0, 0.0, 0.0, 0.0, 0.0, 0.0, 0.0, 0.0, 0.0, 1.6775343610347116E9, 0.0, 2023-02-27 13:46:01.034
21.0, 12020.61170585295, 6727.115121735946, -269.2491137086289, 6801.166451116378, 9206.840003352167, 5861.4991142152685, 7480.883000002265, 9891.429232529312, -0.114, 0.052000000000000005, -1.004, 192.0, 0.0, 0.0, 0.0, 0.0, 0.0, 0.0, 0.0, 0.0, 0.0, 1.677534361034736E9, 0.0, 2023-02-27 13:46:01.034
22.0, 12031.541708891596, 6732.479540405219, -267.66213985230206, 6800.294733082621, 9205.275381240295, 5858.861608369542, 7478.4690116010925, 9886.489497004688, -0.114, 0.052000000000000005, -1.004, 192.0, 0.0, 0.0, 0.0, 0.0, 0.0, 0.0, 0.0, 0.0, 0.0, 1.6775343610347455E9, 0.0, 2023-02-27 13:46:01.034
23.0, 12036.034409527114, 6735.273508462133, -266.34338692943896, 6799.467718537774, 9199.39687244855, 5860.202713036861, 7482.9840639810645, 9893.016206385637, -0.114, 0.052000000000000005, -1.004, 192.0, 0.0, 0.0, 0.0, 0.0, 0.0, 0.0, 0.0, 0.0, 0.0, 1.6775343610347548E9, 0.0, 2023-02-27 13:46:01.034
24.0, 12040.616517140452, 6735.385267184409, -265.69518634023507, 6798.081910381546, 9188.310407198716, 5862.862570627042, 7486.090956460352, 9900.325226822522, -0.114, 0.052000000000000005, -1.004, 192.0, 0.0, 0.0, 0.0, 0.0, 0.0, 0.0, 0.0, 0.0, 0.0, 1.677534361034764E9, 0.0, 2023-02-27 13:46:01.034
25.0, 12039.163653750857, 6734.133569494912, -266.58925611844734, 6798.707759226294, 9194.05480552373, 5862.884922371498, 7481.553552335925, 9896.81600294304, -0.114, 0.052000000000000005, -1.004, 192.0, 0.0, 0.0, 0.0, 0.0, 0.0, 0.0, 0.0, 0.0, 0.0, 1.677534361034773E9, 0.0, 2023-02-27 13:46:01.034
26.0, 12042.0917322745, 6732.971278783236, -268.9361892862546, 6799.1547941154, 9205.364788218116, 5865.611835195045, 7474.937435977154, 9890.378700539912, -0.114, 0.052000000000000005, -1.004, 192.0, 0.0, 0.0, 0.0, 0.0, 0.0, 0.0, 0.0, 0.0, 0.0, 1.6775343610347824E9, 0.0, 2023-02-27 13:46:01.034
27.0, 12046.00328755418, 6733.686534605806, -268.64561660833556, 6800.294733082621, 9203.867221339611, 5865.790649150687, 7480.435965113159, 9893.396186041378, -0.114, 0.052000000000000005, -1.004, 192.0, 0.0, 0.0, 0.0, 0.0, 0.0, 0.0, 0.0, 0.0, 0.0, 1.6775343610347936E9, 0.0, 2023-02-27 13:46:01.034
28.0, 12036.056761271568, 6733.9324037948145, -268.1538782303188, 6800.361788315987, 9206.214154507417, 5866.952939862364, 7485.330997148872, 9901.15224136737, -0.112, 0.042, -1.008, 192.0, 252.0, 128.0, 1.0, 80.0, 224.0, 128.0, 0.0, 0.0, 0.0, 1.677534361034803E9, 0.0, 2023-02-27 13:46:01.034
29.0, 12021.2375546977, 6732.032505516113, -267.7962503190339, 6800.942933671825, 9212.092663299163, 5865.4330212394025, 7481.262979658006, 9899.833488444507, -0.112, 0.042, -1.008, 192.0, 0.0, 0.0, 0.0, 0.0, 0.0, 0.0, 0.0, 0.0, 0.0, 1.6775343610348127E9, 0.0, 2023-02-27 13:46:01.034
30.0, 12011.738063304194, 6733.239499716699, -267.7962503190339, 6797.925448170358, 9200.514459671314, 5857.6322624245, 7474.892732488243, 9893.91027616385, -0.112, 0.042, -1.008, 192.0, 0.0, 0.0, 0.0, 0.0, 0.0, 0.0, 0.0, 0.0, 0.0, 1.677534361034822E9, 0.0, 2023-02-27 13:46:01.034
31.0, 12006.306589401554, 6732.591299127495, -266.7904218185451, 6797.813689448081, 9193.652474123535, 5863.3766607495145, 7477.172610422685, 9894.133793608404, -0.112, 0.042, -1.008, 192.0, 0.0, 0.0, 0.0, 0.0, 0.0, 0.0, 0.0, 0.0, 0.0, 1.6775343610348313E9, 0.0, 2023-02-27 13:46:01.034
32.0, 12008.720577802727, 6727.293935691588, -267.63978810784675, 6800.540602271629, 9216.8759366126, 5865.947111361875, 7482.760546536511, 9896.413671542845, -0.112, 0.042, -1.008, 192.0, 0.0, 0.0, 0.0, 0.0, 0.0, 0.0, 0.0, 0.0, 0.0, 1.67753436103484E9, 0.0, 2023-02-27 13:46:01.034
33.0, 11997.656464297352, 6725.483444390708, -266.96923577418755, 6799.244201093221, 9216.294791256762, 5858.705146158355, 7481.978235480576, 9895.407843042356, -0.112, 0.042, -1.008, 192.0, 0.0, 0.0, 0.0, 0.0, 0.0, 0.0, 0.0, 0.0, 0.0, 1.6775343610348492E9, 0.0, 2023-02-27 13:46:01.034
34.0, 11980.713842000228, 6723.069455989535, -266.36573867389427, 6798.1489656149115, 9210.438634209471, 5864.11426831654, 7477.038499955953, 9891.093956362482, -0.112, 0.042, -1.008, 192.0, 0.0, 0.0, 0.0, 0.0, 0.0, 0.0, 0.0, 0.0, 0.0, 1.6775343610348585E9, 0.0, 2023-02-27 13:46:01.034
35.0, 11987.151144403357, 6724.097636234479, -265.8069450625116, 6798.998331904213, 9211.980904576887, 5869.121059074529, 7475.406822610716, 9895.743119209184, -0.112, 0.042, -1.008, 192.0, 0.0, 0.0, 0.0, 0.0, 0.0, 0.0, 0.0, 0.0, 0.0, 1.6775343610348675E9, 0.0, 2023-02-27 13:46:01.034
36.0, 11999.3328451315, 6726.37751416892, -264.3540816729166, 6800.0265121491575, 9214.976038333898, 5875.312492288648, 7481.330034891372, 9904.348540824478, -0.112, 0.042, -1.008, 192.0, 0.0, 0.0, 0.0, 0.0, 0.0, 0.0, 0.0, 0.0, 0.0, 1.6775343610348768E9, 0.0, 2023-02-27 13:46:01.034
37.0, 11973.516580285619, 6719.113197220945, -265.8516485514222, 6798.1489656149115, 9215.311314500728, 5867.891713129487, 7482.335863391861, 9901.889848934396, -0.112, 0.042, -1.008, 192.0, 0.0, 0.0, 0.0, 0.0, 0.0, 0.0, 0.0, 0.0, 0.0, 1.6775343610348952E9, 0.0, 2023-02-27 13:46:01.034
38.0, 11950.471931752198, 6713.078226218013, -267.1927532187406, 6796.852564436504, 9212.472642954903, 5867.198809051372, 7474.736270277056, 9892.72563370772, -0.108, 0.044, -1.01, 192.0, 252.0, 160.0, 1.0, 96.0, 224.0, 112.0, 0.0, 0.0, 0.0, 1.6775343610349045E9, 0.0, 2023-02-27 13:46:01.034
39.0, 11953.444713764753, 6704.986894725192, -269.5396863865479, 6796.852564436504, 9209.812785364722, 5868.472858485325, 7470.1318109192625, 9888.143526094382, -0.108, 0.044, -1.01, 192.0, 0.0, 0.0, 0.0, 0.0, 0.0, 0.0, 0.0, 0.0, 0.0, 1.6775343610349145E9, 0.0, 2023-02-27 13:46:01.034
40.0, 11919.872393592883, 6701.56707782353, -268.66796835279087, 6798.439538292831, 9207.10822428563, 5869.545742219179, 7475.518581332992, 9894.58082849751, -0.108, 0.044, -1.01, 192.0, 0.0, 0.0, 0.0, 0.0, 0.0, 0.0, 0.0, 0.0, 0.0, 1.6775343610349236E9, 0.0, 2023-02-27 13:46:01.034
41.0, 11895.978378770158, 6703.154051679856, -267.8186020634892, 6796.986674903235, 9201.989674805365, 5859.4427537253805, 7476.792630766944, 9895.497250020177, -0.108, 0.044, -1.01, 192.0, 0.0, 0.0, 0.0, 0.0, 0.0, 0.0, 0.0, 0.0, 0.0, 1.6775343610349336E9, 0.0, 2023-02-27 13:46:01.034
42.0, 11893.765556069084, 6702.103519690457, -267.61743636339145, 6796.070253380568, 9191.171430488996, 5858.34751824707, 7468.276616129472, 9889.90931390635, -0.108, 0.044, -1.01, 192.0, 0.0, 0.0, 0.0, 0.0, 0.0, 0.0, 0.0, 0.0, 0.0, 1.6775343610349429E9, 0.0, 2023-02-27 13:46:01.034
43.0, 11887.238846688135, 6699.667179544828, -267.7515468301233, 6794.550334757607, 9181.850753051132, 5856.4476199683695, 7466.756697506511, 9886.891828404883, -0.108, 0.044, -1.01, 192.0, 0.0, 0.0, 0.0, 0.0, 0.0, 0.0, 0.0, 0.0, 0.0, 1.677534361034952E9, 0.0, 2023-02-27 13:46:01.034
44.0, 11875.794753527016, 6694.32511262001, -268.0421195080423, 6796.897267925414, 9194.72535785739, 5853.497189700269, 7473.082241187363, 9886.154220837858, -0.108, 0.044, -1.01, 192.0, 0.0, 0.0, 0.0, 0.0, 0.0, 0.0, 0.0, 0.0, 0.0, 1.6775343610349612E9, 0.0, 2023-02-27 13:46:01.034
45.0, 11889.988111256136, 6694.615685297929, -267.4162706632937, 6798.283076081643, 9197.184049747473, 5857.855779869054, 7478.357252878815, 9888.031767372104, -0.108, 0.044, -1.01, 192.0, 0.0, 0.0, 0.0, 0.0, 0.0, 0.0, 0.0, 0.0, 0.0, 1.6775343610349703E9, 0.0, 2023-02-27 13:46:01.034
46.0, 11897.744166582128, 6698.057853944047, -267.34921542992777, 6797.3890063034305, 9194.05480552373, 5854.324204245116, 7474.512752832503, 9884.701357448264, -0.108, 0.044, -1.01, 192.0, 0.0, 0.0, 0.0, 0.0, 0.0, 0.0, 0.0, 0.0, 0.0, 1.6775343610349796E9, 0.0, 2023-02-27 13:46:01.034
47.0, 11880.913303007283, 6690.301798618055, -270.5008113981261, 6796.338474314031, 9195.753538102334, 5849.473875698313, 7468.701299274123, 9874.933645121295, -0.108, 0.044, -1.01, 192.0, 0.0, 0.0, 0.0, 0.0, 0.0, 0.0, 0.0, 0.0, 0.0, 1.6775343610349889E9, 0.0, 2023-02-27 13:46:01.034
48.0, 11891.038643245536, 6688.446603828264, -271.41723292079365, 6798.417186548375, 9201.296770727251, 5858.30281475816, 7473.551627820925, 9877.52644747811, -0.106, 0.036000000000000004, -1.004, 192.0, 252.0, 176.0, 1.0, 32.0, 224.0, 160.0, 0.0, 0.0, 0.0, 1.6775343610349996E9, 0.0, 2023-02-27 13:46:01.034
49.0, 11918.575992414475, 6694.258057386644, -270.6572736093132, 6799.579477260051, 9198.860430581622, 5863.264902027238, 7480.704186046623, 9883.024976614115, -0.106, 0.036000000000000004, -1.004, 192.0, 0.0, 0.0, 0.0, 0.0, 0.0, 0.0, 0.0, 0.0, 0.0, 1.6775343610350096E9, 0.0, 2023-02-27 13:46:01.035
50.0, 11921.414663960299, 6694.928609720303, -271.05960500950874, 6798.9759801597575, 9190.478526410881, 5862.527294460213, 7476.904389489221, 9879.96278762374, -0.106, 0.036000000000000004, -1.004, 192.0, 0.0, 0.0, 0.0, 0.0, 0.0, 0.0, 0.0, 0.0, 0.0, 1.6775343610350187E9, 0.0, 2023-02-27 13:46:01.035
51.0, 11933.88693736636, 6692.402862596854, -273.1383172438523, 6797.076081881057, 9196.245276480351, 5857.989890335785, 7470.735308019556, 9872.631415442398, -0.106, 0.036000000000000004, -1.004, 192.0, 0.0, 0.0, 0.0, 0.0, 0.0, 0.0, 0.0, 0.0, 0.0, 1.6775343610350282E9, 0.0, 2023-02-27 13:46:01.035
52.0, 11948.54968172904, 6693.453394586253, -273.0042067771205, 6796.2714190806655, 9196.133517758075, 5854.637128667489, 7475.071546443885, 9872.76552590913, -0.106, 0.036000000000000004, -1.004, 192.0, 0.0, 0.0, 0.0, 0.0, 0.0, 0.0, 0.0, 0.0, 0.0, 1.6775343610350373E9, 0.0, 2023-02-27 13:46:01.035
53.0, 11977.539894287574, 6704.495156347175, -269.13735498635236, 6796.383177802942, 9201.766157360811, 5856.961710090842, 7487.700282061134, 9877.392337011379, -0.106, 0.036000000000000004, -1.004, 192.0, 0.0, 0.0, 0.0, 0.0, 0.0, 0.0, 0.0, 0.0, 0.0, 1.6775343610350773E9, 0.0, 2023-02-27 13:46:01.035
54.0, 11995.354234618455, 6711.580659339507, -267.7515468301233, 6795.131480113445, 9200.469756182403, 5855.06181181214, 7487.968502994598, 9878.442869000777, -0.106, 0.036000000000000004, -1.004, 192.0, 0.0, 0.0, 0.0, 0.0, 0.0, 0.0, 0.0, 0.0, 0.0, 1.6775343610350862E9, 0.0, 2023-02-27 13:46:01.035
55.0, 12001.456260854753, 6710.306609905554, -267.97506427467636, 6793.544506257118, 9197.452270680937, 5848.959785575841, 7478.4690116010925, 9872.452601486755, -0.106, 0.036000000000000004, -1.004, 192.0, 0.0, 0.0, 0.0, 0.0, 0.0, 0.0, 0.0, 0.0, 0.0, 1.6775343610350938E9, 0.0, 2023-02-27 13:46:01.035
56.0, 12016.431929639808, 6713.145281451379, -268.9361892862546, 6793.499802768208, 9193.808936334723, 5844.735305873788, 7479.005453468019, 9873.704299176252, -0.106, 0.036000000000000004, -1.004, 192.0, 0.0, 0.0, 0.0, 0.0, 0.0, 0.0, 0.0, 0.0, 0.0, 1.6775343610351012E9, 0.0, 2023-02-27 13:46:01.035
57.0, 12016.364874406443, 6720.946040266281, -266.63395960735795, 6794.05859637959, 9190.098546755142, 5852.469009455324, 7487.700282061134, 9883.494363247677, -0.106, 0.036000000000000004, -1.004, 192.0, 0.0, 0.0, 0.0, 0.0, 0.0, 0.0, 0.0, 0.0, 0.0, 1.6775343610351083E9, 0.0, 2023-02-27 13:46:01.035
58.0, 12014.263810427645, 6723.494139134185, -264.7787648175675, 6792.493974267719, 9182.163677473507, 5843.640070395479, 7492.7294245635785, 9883.628473714409, -0.11, 0.034, -1.01, 192.0, 252.0, 144.0, 1.0, 16.0, 224.0, 112.0, 0.0, 0.0, 0.0, 1.6775343610351155E9, 0.0, 2023-02-27 13:46:01.035
59.0, 12032.1899094808, 6728.679743847817, -264.890523539844, 6791.510497511685, 9183.549485629735, 5838.052134281652, 7487.320302405394, 9878.331110278501, -0.11, 0.034, -1.01, 192.0, 0.0, 0.0, 0.0, 0.0, 0.0, 0.0, 0.0, 0.0, 0.0, 1.677534361035123E9, 0.0, 2023-02-27 13:46:01.035
60.0, 12054.63106091393, 6733.530072394618, -265.5610758735032, 6792.181049845344, 9185.874067053088, 5844.936471573887, 7489.264904173006, 9880.655691701853, -0.11, 0.034, -1.01, 192.0, 0.0, 0.0, 0.0, 0.0, 0.0, 0.0, 0.0, 0.0, 0.0, 1.6775343610351305E9, 0.0, 2023-02-27 13:46:01.035
61.0, 12049.311345733566, 6731.1160839934455, -266.1422212293412, 6794.125651612956, 9186.745785086845, 5859.375698492015, 7492.282389674472, 9887.517677249632, -0.11, 0.034, -1.01, 192.0, 0.0, 0.0, 0.0, 0.0, 0.0, 0.0, 0.0, 0.0, 0.0, 1.677534361035138E9, 0.0, 2023-02-27 13:46:01.035
62.0, 12053.781694624628, 6731.5854706270065, -265.29285494003955, 6793.499802768208, 9184.063575752209, 5848.132771030995, 7490.024863484486, 9889.954017395261, -0.11, 0.034, -1.01, 192.0, 0.0, 0.0, 0.0, 0.0, 0.0, 0.0, 0.0, 0.0, 0.0, 1.677534361035145E9, 0.0, 2023-02-27 13:46:01.035
63.0, 12064.868159874459, 6735.675839862328, -264.890523539844, 6790.571724244563, 9177.313348926706, 5832.285384212182, 7488.102613461329, 9883.963749881239, -0.11, 0.034, -1.01, 192.0, 0.0, 0.0, 0.0, 0.0, 0.0, 0.0, 0.0, 0.0, 0.0, 1.677534361035152E9, 0.0, 2023-02-27 13:46:01.035
64.0, 12068.511494220675, 6738.492159663697, -263.9741020171764, 6790.81759343357, 9183.795354818745, 5836.129884258496, 7490.203677440129, 9883.114383591937, -0.11, 0.034, -1.01, 192.0, 0.0, 0.0, 0.0, 0.0, 0.0, 0.0, 0.0, 0.0, 0.0, 1.677534361035159E9, 0.0, 2023-02-27 13:46:01.035
65.0, 12084.671805461861, 6739.945023053292, -263.3929566613384, 6793.835078935037, 9203.643703895057, 5852.893692599976, 7494.629322842279, 9890.535162751099, -0.11, 0.034, -1.01, 192.0, 0.0, 0.0, 0.0, 0.0, 0.0, 0.0, 0.0, 0.0, 0.0, 1.6775343610351658E9, 0.0, 2023-02-27 13:46:01.035
66.0, 12086.951683396303, 6743.297784721588, -262.14125897184124, 6792.3375120565315, 9193.116032256608, 5844.668250640422, 7498.853802544332, 9894.536125008599, -0.11, 0.034, -1.01, 192.0, 0.0, 0.0, 0.0, 0.0, 0.0, 0.0, 0.0, 0.0, 0.0, 1.6775343610351727E9, 0.0, 2023-02-27 13:46:01.035
67.0, 12086.236427573733, 6745.734124867216, -262.2753694385731, 6788.5824189880395, 9174.362918658606, 5830.988983033774, 7495.679854831679, 9889.015244128137, -0.11, 0.034, -1.01, 192.0, 0.0, 0.0, 0.0, 0.0, 0.0, 0.0, 0.0, 0.0, 0.0, 1.6775343610351799E9, 0.0, 2023-02-27 13:46:01.035
68.0, 12086.638758973928, 6743.700116121783, -263.6611775948021, 6790.191744588822, 9180.286130939261, 5842.790704106177, 7492.930590263676, 9882.309720791545, -0.11, 0.034, -1.01, 192.0, 0.0, 0.0, 0.0, 0.0, 0.0, 0.0, 0.0, 0.0, 0.0, 1.6775343610351868E9, 0.0, 2023-02-27 13:46:01.035
69.0, 12091.44438403182, 6740.369706197943, -263.9070467838105, 6791.890477167425, 9181.269607695294, 5848.915082086931, 7495.970427509597, 9882.890866147383, -0.10400000000000001, 0.032, -1.008, 192.0, 252.0, 192.0, 1.0, 0.0, 224.0, 128.0, 0.0, 0.0, 0.0, 1.677534361035219E9, 0.0, 2023-02-27 13:46:01.035
70.0, 12087.577532241052, 6738.805084086071, -263.6835293392574, 6794.885610924436, 9202.503764927837, 5858.369869991526, 7498.876154288788, 9884.656653959353, -0.10400000000000001, 0.032, -1.008, 192.0, 0.0, 0.0, 0.0, 0.0, 0.0, 0.0, 0.0, 0.0, 0.0, 1.6775343610352268E9, 0.0, 2023-02-27 13:46:01.035
71.0, 12093.143116610423, 6741.397886442886, -264.3540816729166, 6794.013892890679, 9205.029512051286, 5854.033631567197, 7493.869363530799, 9883.04732835857, -0.10400000000000001, 0.032, -1.008, 192.0, 0.0, 0.0, 0.0, 0.0, 0.0, 0.0, 0.0, 0.0, 0.0, 1.6775343610352337E9, 0.0, 2023-02-27 13:46:01.035
72.0, 12103.603733015507, 6742.873101576937, -264.2423229506401, 6791.1081661114895, 9195.664131124513, 5841.091971527573, 7489.466069873103, 9881.013319613137, -0.10400000000000001, 0.032, -1.008, 192.0, 0.0, 0.0, 0.0, 0.0, 0.0, 0.0, 0.0, 0.0, 0.0, 1.677534361035241E9, 0.0, 2023-02-27 13:46:01.035
73.0, 12105.01189291619, 6746.739953367705, -261.9624450161988, 6791.599904489506, 9196.692311369457, 5845.607023907545, 7494.763433309011, 9885.148392337369, -0.10400000000000001, 0.032, -1.008, 192.0, 0.0, 0.0, 0.0, 0.0, 0.0, 0.0, 0.0, 0.0, 0.0, 1.6775343610352478E9, 0.0, 2023-02-27 13:46:01.035
74.0, 12101.703834736805, 6750.71856388075, -259.9060845263105, 6791.376387044953, 9187.617503120602, 5845.115285529529, 7500.552535122935, 9891.161011595847, -0.10400000000000001, 0.032, -1.008, 192.0, 0.0, 0.0, 0.0, 0.0, 0.0, 0.0, 0.0, 0.0, 0.0, 1.6775343610352552E9, 0.0, 2023-02-27 13:46:01.035
75.0, 12102.642608003927, 6753.490180193207, -259.66021533730213, 6789.3423782995205, 9178.989729760853, 5842.1872070058835, 7498.652636844235, 9891.04925287357, -0.10400000000000001, 0.032, -1.008, 192.0, 0.0, 0.0, 0.0, 0.0, 0.0, 0.0, 0.0, 0.0, 0.0, 1.677534361035262E9, 0.0, 2023-02-27 13:46:01.035
76.0, 12107.44823306182, 6757.312328495065, -258.6096833479027, 6786.861334664981, 9177.335700671161, 5835.168759246917, 7495.970427509597, 9887.070642360526, -0.10400000000000001, 0.032, -1.008, 192.0, 0.0, 0.0, 0.0, 0.0, 0.0, 0.0, 0.0, 0.0, 0.0, 1.6775343610352693E9, 0.0, 2023-02-27 13:46:01.035
77.0, 12115.047826176624, 6756.775886628138, -258.31911066998373, 6786.637817220428, 9185.918770541999, 5839.6614598824335, 7499.144375222251, 9889.506982506155, -0.10400000000000001, 0.032, -1.008, 192.0, 0.0, 0.0, 0.0, 0.0, 0.0, 0.0, 0.0, 0.0, 0.0, 1.677534361035276E9, 0.0, 2023-02-27 13:46:01.035
78.0, 12112.879706964459, 6754.607767415973, -257.6262065918692, 6787.822459676559, 9191.730224100378, 5847.372811719515, 7501.983046768075, 9895.67606397582, -0.10400000000000001, 0.032, -1.008, 192.0, 0.0, 0.0, 0.0, 0.0, 0.0, 0.0, 0.0, 0.0, 0.0, 1.677534361035283E9, 0.0, 2023-02-27 13:46:01.035
79.0, 12112.946762197824, 6755.278319749632, -257.2909304250396, 6785.341416042021, 9185.807011819723, 5845.942300074375, 7500.19490721165, 9893.53029650811, -0.10400000000000001, 0.032, -1.006, 192.0, 252.0, 192.0, 1.0, 0.0, 224.0, 144.0, 0.0, 0.0, 0.0, 1.67753436103529E9, 0.0, 2023-02-27 13:46:01.035
80.0, 12118.601753545017, 6758.0052325731795, -255.9498257577212, 6782.569799729562, 9173.37944190257, 5837.292174970171, 7495.299875175939, 9886.578903982509, -0.10400000000000001, 0.032, -1.006, 192.0, 0.0, 0.0, 0.0, 0.0, 0.0, 0.0, 0.0, 0.0, 0.0, 1.6775343610352972E9, 0.0, 2023-02-27 13:46:01.035
81.0, 12117.73003551126, 6759.078116307034, -255.48043912415972, 6780.044052606113, 9171.077212223676, 5832.82182607911, 7494.226991442084, 9887.651787716364, -0.10400000000000001, 0.032, -1.006, 192.0, 0.0, 0.0, 0.0, 0.0, 0.0, 0.0, 0.0, 0.0, 0.0, 1.6775343610353043E9, 0.0, 2023-02-27 13:46:01.035
82.0, 12121.708646024304, 6758.899302351392, -254.92164551277705, 6779.798183417104, 9176.754555315323, 5832.307735956638, 7499.256133944528, 9888.121174349926, -0.10400000000000001, 0.032, -1.006, 192.0, 0.0, 0.0, 0.0, 0.0, 0.0, 0.0, 0.0, 0.0, 0.0, 1.6775343610353117E9, 0.0, 2023-02-27 13:46:01.035
83.0, 12122.78152975816, 6758.027584317635, -255.52514261307033, 6779.351148527998, 9177.62627334908, 5831.458369667336, 7498.898506033243, 9886.265979560136, -0.10400000000000001, 0.032, -1.006, 192.0, 0.0, 0.0, 0.0, 0.0, 0.0, 0.0, 0.0, 0.0, 0.0, 1.6775343610353184E9, 0.0, 2023-02-27 13:46:01.035
84.0, 12123.49678558073, 6754.563063927062, -256.64272983583567, 6777.697119438305, 9173.960587258409, 5824.506977141736, 7490.695415818145, 9881.013319613137, -0.10400000000000001, 0.032, -1.006, 192.0, 0.0, 0.0, 0.0, 0.0, 0.0, 0.0, 0.0, 0.0, 0.0, 1.6775343610353255E9, 0.0, 2023-02-27 13:46:01.035
85.0, 12126.44721584883, 6755.233616260722, -256.57567460246975, 6777.406546760386, 9172.999462246831, 5819.5225381282025, 7492.14827920774, 9878.331110278501, -0.10400000000000001, 0.032, -1.006, 192.0, 0.0, 0.0, 0.0, 0.0, 0.0, 0.0, 0.0, 0.0, 0.0, 1.6775343610353377E9, 0.0, 2023-02-27 13:46:01.035
86.0, 12123.54148906964, 6753.959566826769, -257.9614827586988, 6778.412375260875, 9174.742898314345, 5821.713009084822, 7498.183250210674, 9885.751889437663, -0.10400000000000001, 0.032, -1.006, 192.0, 0.0, 0.0, 0.0, 0.0, 0.0, 0.0, 0.0, 0.0, 0.0, 1.6775343610353448E9, 0.0, 2023-02-27 13:46:01.035
87.0, 12119.182898900855, 6751.09854353649, -258.4979246256262, 6781.519267740163, 9174.80995354771, 5831.815997578621, 7497.870325788299, 9889.52933425061, -0.10400000000000001, 0.032, -1.006, 192.0, 0.0, 0.0, 0.0, 0.0, 0.0, 0.0, 0.0, 0.0, 0.0, 1.6775343610353522E9, 0.0, 2023-02-27 13:46:01.035
88.0, 12123.563840814095, 6753.2443110041995, -258.34146241443904, 6781.608674717984, 9169.132610456063, 5829.804340577643, 7494.808136797922, 9884.902523148361, -0.10400000000000001, 0.032, -1.006, 192.0, 0.0, 0.0, 0.0, 0.0, 0.0, 0.0, 0.0, 0.0, 0.0, 1.6775343610353591E9, 0.0, 2023-02-27 13:46:01.035
89.0, 12120.076968679068, 6755.09950579399, -258.922607770277, 6781.631026462439, 9157.710869039402, 5832.419494678914, 7493.891715275254, 9884.746060937174, -0.10200000000000001, 0.036000000000000004, -1.008, 192.0, 252.0, 208.0, 1.0, 32.0, 224.0, 128.0, 0.0, 0.0, 0.0, 1.6775343610353663E9, 0.0, 2023-02-27 13:46:01.035
90.0, 12125.73196002626, 6755.747706383194, -258.4979246256262, 6785.341416042021, 9170.38430814556, 5835.504035413746, 7497.669160088201, 9891.451584273766, -0.10200000000000001, 0.036000000000000004, -1.008, 192.0, 0.0, 0.0, 0.0, 0.0, 0.0, 0.0, 0.0, 0.0, 0.0, 1.6775343610353737E9, 0.0, 2023-02-27 13:46:01.035
91.0, 12125.933125726358, 6752.931386581825, -259.05671823700885, 6788.090680610023, 9187.796317076245, 5839.169721504417, 7499.546706622447, 9890.646921473375, -0.10200000000000001, 0.036000000000000004, -1.008, 192.0, 0.0, 0.0, 0.0, 0.0, 0.0, 0.0, 0.0, 0.0, 0.0, 1.6775343610353825E9, 0.0, 2023-02-27 13:46:01.035
92.0, 12132.482186851763, 6747.969299312747, -261.3365961714502, 6788.984750388236, 9194.278322968285, 5849.339765231582, 7492.572962352391, 9882.265017302636, -0.10200000000000001, 0.036000000000000004, -1.008, 192.0, 0.0, 0.0, 0.0, 0.0, 0.0, 0.0, 0.0, 0.0, 0.0, 1.6775343610353897E9, 0.0, 2023-02-27 13:46:01.035
93.0, 12149.69303008235, 6746.3152702230545, -262.4318316497602, 6788.738881199227, 9191.86433456711, 5844.042401795674, 7488.929628006176, 9878.420517256322, -0.10200000000000001, 0.036000000000000004, -1.008, 192.0, 0.0, 0.0, 0.0, 0.0, 0.0, 0.0, 0.0, 0.0, 0.0, 1.6775343610353963E9, 0.0, 2023-02-27 13:46:01.035
94.0, 12139.724152055282, 6750.1374185249115, -261.6495205938245, 6789.63295097744, 9188.019834520797, 5839.3708872045145, 7495.210468198117, 9886.489497004688, -0.10200000000000001, 0.036000000000000004, -1.008, 192.0, 0.0, 0.0, 0.0, 0.0, 0.0, 0.0, 0.0, 0.0, 0.0, 1.6775343610354035E9, 0.0, 2023-02-27 13:46:01.035
95.0, 12122.78152975816, 6749.28805223561, -263.21414270569596, 6790.884648666936, 9186.365805431105, 5848.602157664556, 7497.53504962147, 9890.691624962286, -0.10200000000000001, 0.036000000000000004, -1.008, 192.0, 0.0, 0.0, 0.0, 0.0, 0.0, 0.0, 0.0, 0.0, 0.0, 1.677534361035411E9, 0.0, 2023-02-27 13:46:01.035
96.0, 12118.422939589374, 6747.723430123739, -264.7787648175675, 6789.5211922551625, 9184.778831574778, 5856.313509501638, 7493.042348985952, 9883.561418481042, -0.10200000000000001, 0.036000000000000004, -1.008, 192.0, 0.0, 0.0, 0.0, 0.0, 0.0, 0.0, 0.0, 0.0, 0.0, 1.6775343610354178E9, 0.0, 2023-02-27 13:46:01.035
97.0, 12129.419997861385, 6749.690383635805, -263.88469503935517, 6788.984750388236, 9184.130630985574, 5855.844122868076, 7489.823697784388, 9879.091069589982, -0.10200000000000001, 0.036000000000000004, -1.008, 192.0, 0.0, 0.0, 0.0, 0.0, 0.0, 0.0, 0.0, 0.0, 0.0, 1.6775343610354247E9, 0.0, 2023-02-27 13:46:01.035
98.0, 12126.648381548928, 6749.556273169073, -262.90121828332167, 6790.907000411392, 9193.33954970116, 5855.620605423523, 7494.003473997531, 9886.914180149339, -0.10200000000000001, 0.036000000000000004, -1.008, 192.0, 0.0, 0.0, 0.0, 0.0, 0.0, 0.0, 0.0, 0.0, 0.0, 1.6775343610354316E9, 0.0, 2023-02-27 13:46:01.035
99.0, 12124.435558847852, 6748.237520246211, -262.9906252611429, 6792.315160312076, 9192.57959038968, 5858.146352546973, 7498.742043822056, 9893.61970348593, -0.10200000000000001, 0.036000000000000004, -1.01, 192.0, 252.0, 208.0, 1.0, 32.0, 224.0, 112.0, 0.0, 0.0, 0.0, 1.6775343610354388E9, 0.0, 2023-02-27 13:46:01.035
100.0, 12132.102207196023, 6747.723430123739, -263.728232828168, 6793.1645266013775, 9202.526116672292, 5850.367945476526, 7496.439814143159, 9893.016206385637, -0.10200000000000001, 0.036000000000000004, -1.01, 192.0, 0.0, 0.0, 0.0, 0.0, 0.0, 0.0, 0.0, 0.0, 0.0, 1.677534361035446E9, 0.0, 2023-02-27 13:46:01.035
101.0, 12139.187710188355, 6747.835188846015, -264.3764334173719, 6791.555201000596, 9202.570820161203, 5847.685736141889, 7493.57879085288, 9885.126040592915, -0.10200000000000001, 0.036000000000000004, -1.01, 192.0, 0.0, 0.0, 0.0, 0.0, 0.0, 0.0, 0.0, 0.0, 0.0, 1.6775343610354605E9, 0.0, 2023-02-27 13:46:01.035
102.0, 12139.54533809964, 6747.879892334926, -262.6777008387686, 6790.303503311098, 9190.903209555532, 5845.785837863188, 7495.7245583205895, 9890.199886584269, -0.10200000000000001, 0.036000000000000004, -1.01, 192.0, 0.0, 0.0, 0.0, 0.0, 0.0, 0.0, 0.0, 0.0, 0.0, 1.6775343610354676E9, 0.0, 2023-02-27 13:46:01.035
103.0, 12131.968096729292, 6750.964433069758, -260.1296019708636, 6791.666959722872, 9182.834229807166, 5851.597291421568, 7502.050102001442, 9898.894715177383, -0.10200000000000001, 0.036000000000000004, -1.01, 192.0, 0.0, 0.0, 0.0, 0.0, 0.0, 0.0, 0.0, 0.0, 0.0, 1.6775343610354743E9, 0.0, 2023-02-27 13:46:01.035
104.0, 12134.78441653066, 6752.57375867054, -260.9789682601653, 6791.063462622579, 9185.24821820834, 5858.191056035884, 7500.306665933927, 9898.358273310456, -0.10200000000000001, 0.036000000000000004, -1.01, 192.0, 0.0, 0.0, 0.0, 0.0, 0.0, 0.0, 0.0, 0.0, 0.0, 1.6775343610354815E9, 0.0, 2023-02-27 13:46:01.035
105.0, 12138.539509599152, 6751.679688892328, -261.82833454946694, 6790.795241689115, 9195.082985768675, 5852.737230388789, 7495.2551716870275, 9891.697453462775, -0.10200000000000001, 0.036000000000000004, -1.01, 192.0, 0.0, 0.0, 0.0, 0.0, 0.0, 0.0, 0.0, 0.0, 0.0, 1.6775343610354884E9, 0.0, 2023-02-27 13:46:01.035
106.0, 12138.517157854696, 6747.723430123739, -263.46001189470434, 6792.113994611978, 9209.25399175334, 5859.040422325185, 7497.088014732363, 9888.367043538934, -0.10200000000000001, 0.036000000000000004, -1.01, 192.0, 0.0, 0.0, 0.0, 0.0, 0.0, 0.0, 0.0, 0.0, 0.0, 1.6775343610354953E9, 0.0, 2023-02-27 13:46:01.035
107.0, 12132.92922174087, 6747.1422847679005, -263.50471538361495, 6793.142174856923, 9211.511517943325, 5862.706108415855, 7503.637075857768, 9893.664406974842, -0.10200000000000001, 0.036000000000000004, -1.01, 192.0, 0.0, 0.0, 0.0, 0.0, 0.0, 0.0, 0.0, 0.0, 0.0, 1.6775343610355024E9, 0.0, 2023-02-27 13:46:01.035
108.0, 12122.893288480436, 6745.600014400485, -263.3482531724278, 6791.48814576723, 9204.96245681792, 5853.854817611554, 7502.117157234808, 9894.759642453151, -0.10200000000000001, 0.036000000000000004, -1.01, 192.0, 0.0, 0.0, 0.0, 0.0, 0.0, 0.0, 0.0, 0.0, 0.0, 1.677534361035509E9, 0.0, 2023-02-27 13:46:01.035
109.0, 12122.937991969347, 6744.840055089004, -265.2034479622183, 6790.303503311098, 9207.421148708005, 5860.314471759138, 7492.684721074667, 9888.881133661405, -0.10400000000000001, 0.04, -1.006, 192.0, 252.0, 192.0, 1.0, 64.0, 224.0, 144.0, 0.0, 0.0, 0.0, 1.6775343610355163E9, 0.0, 2023-02-27 13:46:01.035
110.0, 12124.904945481414, 6746.248214989689, -264.6893578397462, 6789.767061444171, 9201.430881193983, 5859.174532791917, 7490.762471051511, 9888.545857494577, -0.10400000000000001, 0.04, -1.006, 192.0, 0.0, 0.0, 0.0, 0.0, 0.0, 0.0, 0.0, 0.0, 0.0, 1.6775343610355237E9, 0.0, 2023-02-27 13:46:01.035
111.0, 12139.92531775538, 6743.834226588515, -263.4153084057937, 6790.2811515666435, 9200.067424782208, 5855.687660656889, 7497.177421710185, 9893.86557267494, -0.10400000000000001, 0.04, -1.006, 192.0, 0.0, 0.0, 0.0, 0.0, 0.0, 0.0, 0.0, 0.0, 0.0, 1.6775343610355306E9, 0.0, 2023-02-27 13:46:01.035
112.0, 12143.054561979123, 6744.996517300191, -262.78945956104513, 6790.549372500107, 9199.888610826565, 5855.77706763471, 7498.205601955128, 9896.994816898683, -0.10400000000000001, 0.04, -1.006, 192.0, 0.0, 0.0, 0.0, 0.0, 0.0, 0.0, 0.0, 0.0, 0.0, 1.677534361035539E9, 0.0, 2023-02-27 13:46:01.035
113.0, 12122.82623324707, 6747.85754059047, -263.0129770055982, 6789.5211922551625, 9196.401738691538, 5856.224102523816, 7492.394148396748, 9891.496287762677, -0.10400000000000001, 0.04, -1.006, 192.0, 0.0, 0.0, 0.0, 0.0, 0.0, 0.0, 0.0, 0.0, 0.0, 1.6775343610355458E9, 0.0, 2023-02-27 13:46:01.035
114.0, 12123.005047202712, 6748.841017346504, -263.81763980598924, 6788.761232943682, 9191.48435491137, 5850.524407687713, 7490.494250118048, 9889.261113317147, -0.10400000000000001, 0.04, -1.006, 192.0, 0.0, 0.0, 0.0, 0.0, 0.0, 0.0, 0.0, 0.0, 0.0, 1.6775343610355527E9, 0.0, 2023-02-27 13:46:01.035
115.0, 12131.722227540282, 6747.85754059047, -263.3706049168831, 6790.303503311098, 9189.115069999109, 5850.412648965436, 7496.417462398704, 9893.284427319102, -0.10400000000000001, 0.04, -1.006, 192.0, 0.0, 0.0, 0.0, 0.0, 0.0, 0.0, 0.0, 0.0, 0.0, 1.6775343610355601E9, 0.0, 2023-02-27 13:46:01.035
116.0, 12137.757198543215, 6746.225863245233, -263.9517502727211, 6790.728186455749, 9194.479488668381, 5847.305756486149, 7498.473822888592, 9894.24555233068, -0.10400000000000001, 0.04, -1.006, 192.0, 0.0, 0.0, 0.0, 0.0, 0.0, 0.0, 0.0, 0.0, 0.0, 1.677534361035568E9, 0.0, 2023-02-27 13:46:01.035
117.0, 12137.332515398564, 6749.2433487467, -263.57177061698087, 6790.4599655222855, 9192.959570045421, 5844.645898895968, 7494.852840286832, 9894.089090119493, -0.10400000000000001, 0.04, -1.006, 192.0, 0.0, 0.0, 0.0, 0.0, 0.0, 0.0, 0.0, 0.0, 0.0, 1.6775343610355823E9, 0.0, 2023-02-27 13:46:01.035
118.0, 12130.470529850785, 6746.739953367705, -264.93522702875464, 6791.555201000596, 9194.01010203482, 5852.379602477504, 7489.019034983998, 9890.177534839813, -0.10400000000000001, 0.04, -1.006, 192.0, 0.0, 0.0, 0.0, 0.0, 0.0, 0.0, 0.0, 0.0, 0.0, 1.6775343610355897E9, 0.0, 2023-02-27 13:46:01.035
119.0, 12132.415131618398, 6744.549482411085, -265.62813110686915, 6792.158698100889, 9195.86529682461, 5859.308643258649, 7493.869363530799, 9892.591523240986, -0.10400000000000001, 0.04, -1.01, 192.0, 252.0, 192.0, 1.0, 64.0, 224.0, 112.0, 0.0, 0.0, 0.0, 1.6775343610355968E9, 0.0, 2023-02-27 13:46:01.035
120.0, 12130.78345427316, 6744.661241133362, -264.91287528429933, 6792.561029501085, 9191.663168867013, 5852.670175155423, 7498.607933355324, 9896.301912820569, -0.10400000000000001, 0.04, -1.01, 192.0, 0.0, 0.0, 0.0, 0.0, 0.0, 0.0, 0.0, 0.0, 0.0, 1.6775343610356042E9, 0.0, 2023-02-27 13:46:01.035
121.0, 12126.693085037838, 6746.941119067803, -263.9070467838105, 6791.599904489506, 9183.460078651915, 5840.935509316387, 7496.417462398704, 9895.072566875526, -0.10400000000000001, 0.04, -1.01, 192.0, 0.0, 0.0, 0.0, 0.0, 0.0, 0.0, 0.0, 0.0, 0.0, 1.6775343615142543E9, 0.0, 2023-02-27 13:46:01.514
122.0, 12129.196480416833, 6748.036354546113, -263.2811979390619, 6791.376387044953, 9183.013043762809, 5834.229985979794, 7494.226991442084, 9891.451584273766, -0.10400000000000001, 0.04, -1.01, 192.0, 0.0, 0.0, 0.0, 0.0, 0.0, 0.0, 0.0, 0.0, 0.0, 1.677534361514288E9, 0.0, 2023-02-27 13:46:01.514
123.0, 12132.281021151664, 6746.851712089981, -263.77293631707863, 6791.175221344855, 9182.856581551621, 5837.627451137001, 7496.931552521176, 9893.798517441573, -0.10400000000000001, 0.04, -1.01, 192.0, 0.0, 0.0, 0.0, 0.0, 0.0, 0.0, 0.0, 0.0, 0.0, 1.6775343615143006E9, 0.0, 2023-02-27 13:46:01.514
124.0, 12140.618221833494, 6747.522264423641, -262.87886653886636, 6793.1645266013775, 9183.236561207363, 5851.105553043551, 7500.440776400659, 9898.782956455107, -0.10400000000000001, 0.04, -1.01, 192.0, 0.0, 0.0, 0.0, 0.0, 0.0, 0.0, 0.0, 0.0, 0.0, 1.6775343615143101E9, 0.0, 2023-02-27 13:46:01.514
125.0, 12151.12354172749, 6746.337621967509, -263.0576804945088, 6793.656264979394, 9182.409546662515, 5858.0345938246965, 7498.429119399681, 9896.123098864926, -0.10400000000000001, 0.04, -1.01, 192.0, 0.0, 0.0, 0.0, 0.0, 0.0, 0.0, 0.0, 0.0, 0.0, 1.6775343615143244E9, 0.0, 2023-02-27 13:46:01.514
126.0, 12140.35000090003, 6744.437723688809, -263.83999155044455, 6791.979884145247, 9171.501895368327, 5852.714878644333, 7494.383453653271, 9889.842258672985, -0.10400000000000001, 0.04, -1.01, 192.0, 0.0, 0.0, 0.0, 0.0, 0.0, 0.0, 0.0, 0.0, 0.0, 1.6775343615143356E9, 0.0, 2023-02-27 13:46:01.514
127.0, 12139.031247977167, 6746.0246975451355, -263.77293631707863, 6791.935180656336, 9175.8157820482, 5852.200788521861, 7496.886849032266, 9891.630398229408, -0.10400000000000001, 0.04, -1.01, 192.0, 0.0, 0.0, 0.0, 0.0, 0.0, 0.0, 0.0, 0.0, 0.0, 1.6775343615143442E9, 0.0, 2023-02-27 13:46:01.514
128.0, 12132.057503707112, 6743.387191699409, -264.44348865073783, 6794.997369646713, 9204.62718065109, 5857.766372891232, 7501.379549667782, 9893.642055230386, -0.10400000000000001, 0.04, -1.01, 192.0, 0.0, 0.0, 0.0, 0.0, 0.0, 0.0, 0.0, 0.0, 0.0, 1.677534361514351E9, 0.0, 2023-02-27 13:46:01.514
129.0, 12122.468605335785, 6748.3716307129425, -262.83416304995575, 6792.493974267719, 9189.33858744366, 5847.931605330898, 7501.357197923327, 9893.485593019199, -0.10400000000000001, 0.034, -1.008, 192.0, 252.0, 192.0, 1.0, 16.0, 224.0, 128.0, 0.0, 0.0, 0.0, 1.6775343615143576E9, 0.0, 2023-02-27 13:46:01.514
130.0, 12119.093491923035, 6749.086886535512, -263.3706049168831, 6791.085814367034, 9179.816744305701, 5849.384468720493, 7495.43398564267, 9886.042462115582, -0.10400000000000001, 0.034, -1.008, 192.0, 0.0, 0.0, 0.0, 0.0, 0.0, 0.0, 0.0, 0.0, 0.0, 1.6775343615143652E9, 0.0, 2023-02-27 13:46:01.514
131.0, 12120.367541356987, 6747.119933023445, -264.10821248390823, 6790.147041099911, 9181.426069906482, 5854.167742033928, 7494.405805397726, 9886.735366193696, -0.10400000000000001, 0.034, -1.008, 192.0, 0.0, 0.0, 0.0, 0.0, 0.0, 0.0, 0.0, 0.0, 0.0, 1.677534361514372E9, 0.0, 2023-02-27 13:46:01.514
132.0, 12124.614372803495, 6747.052877790079, -262.56594211649207, 6790.370558544464, 9187.371633931594, 5851.329070488104, 7501.312494434416, 9891.272770318124, -0.10400000000000001, 0.034, -1.008, 192.0, 0.0, 0.0, 0.0, 0.0, 0.0, 0.0, 0.0, 0.0, 0.0, 1.6775343615143783E9, 0.0, 2023-02-27 13:46:01.514
133.0, 12129.576460072572, 6746.248214989689, -263.0353287500535, 6790.325855055554, 9194.68065436848, 5840.220253493817, 7503.39120666876, 9891.518639507132, -0.10400000000000001, 0.034, -1.008, 192.0, 0.0, 0.0, 0.0, 0.0, 0.0, 0.0, 0.0, 0.0, 0.0, 1.6775343615144224E9, 0.0, 2023-02-27 13:46:01.514
134.0, 12132.348076385031, 6745.5553109115735, -263.5941223614362, 6791.53284925614, 9199.620389893102, 5843.371849462014, 7495.858668787321, 9885.640130715386, -0.10400000000000001, 0.034, -1.008, 192.0, 0.0, 0.0, 0.0, 0.0, 0.0, 0.0, 0.0, 0.0, 0.0, 1.677534361514429E9, 0.0, 2023-02-27 13:46:01.514
135.0, 12131.54341358464, 6745.28708997811, -264.0635089949976, 6791.935180656336, 9196.245276480351, 5856.201750779361, 7496.708035076623, 9884.075508603515, -0.10400000000000001, 0.034, -1.008, 192.0, 0.0, 0.0, 0.0, 0.0, 0.0, 0.0, 0.0, 0.0, 0.0, 1.6775343615144355E9, 0.0, 2023-02-27 13:46:01.514
136.0, 12134.963230486303, 6745.845883589493, -263.7505845726233, 6791.510497511685, 9191.551410144737, 5855.441791467881, 7502.363026423815, 9889.81990692853, -0.10400000000000001, 0.034, -1.008, 192.0, 0.0, 0.0, 0.0, 0.0, 0.0, 0.0, 0.0, 0.0, 0.0, 1.6775343615144424E9, 0.0, 2023-02-27 13:46:01.514
137.0, 12133.935050241358, 6746.449380689786, -263.23649445015127, 6791.376387044953, 9190.72439559989, 5846.165817518928, 7501.8265845568885, 9891.76450869614, -0.10400000000000001, 0.034, -1.008, 192.0, 0.0, 0.0, 0.0, 0.0, 0.0, 0.0, 0.0, 0.0, 0.0, 1.6775343615144491E9, 0.0, 2023-02-27 13:46:01.514
138.0, 12132.750407785226, 6742.71663936575, -264.44348865073783, 6792.583381245539, 9197.653436381035, 5853.519541444724, 7494.897543775743, 9886.489497004688, -0.10400000000000001, 0.034, -1.008, 192.0, 0.0, 0.0, 0.0, 0.0, 0.0, 0.0, 0.0, 0.0, 0.0, 1.6775343615144556E9, 0.0, 2023-02-27 13:46:01.514
139.0, 12132.862166507502, 6741.353182953976, -264.95757877320995, 6791.890477167425, 9197.429918936483, 5850.435000709892, 7492.975293752586, 9883.226142314214, -0.10200000000000001, 0.042, -1.004, 192.0, 252.0, 208.0, 1.0, 80.0, 224.0, 160.0, 0.0, 0.0, 0.0, 1.677534361514462E9, 0.0, 2023-02-27 13:46:01.514
140.0, 12127.698913538326, 6740.973203298236, -264.0411572505423, 6792.091642867523, 9193.920695056999, 5847.39516346397, 7496.506869376525, 9887.160049338347, -0.10200000000000001, 0.042, -1.004, 192.0, 0.0, 0.0, 0.0, 0.0, 0.0, 0.0, 0.0, 0.0, 0.0, 1.6775343615144691E9, 0.0, 2023-02-27 13:46:01.514
141.0, 12125.530794326163, 6739.967374797747, -264.44348865073783, 6793.052767879101, 9190.322064199694, 5848.2892332421825, 7498.5408781219585, 9891.004549384661, -0.10200000000000001, 0.042, -1.004, 192.0, 0.0, 0.0, 0.0, 0.0, 0.0, 0.0, 0.0, 0.0, 0.0, 1.6775343615144756E9, 0.0, 2023-02-27 13:46:01.514
142.0, 12129.867032750491, 6739.319174208543, -265.1363927288524, 6792.96336090128, 9190.478526410881, 5847.126942530506, 7493.712901319612, 9887.249456316169, -0.10200000000000001, 0.042, -1.004, 192.0, 0.0, 0.0, 0.0, 0.0, 0.0, 0.0, 0.0, 0.0, 0.0, 1.6775343615144823E9, 0.0, 2023-02-27 13:46:01.514
143.0, 12143.099265468034, 6742.493121921197, -265.27050319558424, 6791.912828911881, 9186.030529264275, 5844.377677962503, 7491.0306919849745, 9885.707185948753, -0.10200000000000001, 0.042, -1.004, 192.0, 0.0, 0.0, 0.0, 0.0, 0.0, 0.0, 0.0, 0.0, 0.0, 1.6775343615144887E9, 0.0, 2023-02-27 13:46:01.514
144.0, 12154.163378973411, 6746.136456267412, -264.7564130731122, 6793.723320212761, 9194.34537820165, 5845.15998901844, 7496.573924609891, 9896.659540731853, -0.10200000000000001, 0.042, -1.004, 192.0, 0.0, 0.0, 0.0, 0.0, 0.0, 0.0, 0.0, 0.0, 0.0, 1.6775343615144951E9, 0.0, 2023-02-27 13:46:01.514
145.0, 12162.277062210687, 6746.561139412062, -264.7340613286569, 6795.44440453582, 9193.875991568088, 5846.344631474571, 7502.117157234808, 9900.772261711629, -0.10200000000000001, 0.042, -1.004, 192.0, 0.0, 0.0, 0.0, 0.0, 0.0, 0.0, 0.0, 0.0, 0.0, 1.6775343615145016E9, 0.0, 2023-02-27 13:46:01.514
146.0, 12142.182843945366, 6741.353182953976, -266.4327939072602, 6793.589209746028, 9179.816744305701, 5844.3553262180485, 7497.736215321567, 9892.502116263166, -0.10200000000000001, 0.042, -1.004, 192.0, 0.0, 0.0, 0.0, 0.0, 0.0, 0.0, 0.0, 0.0, 0.0, 1.677534361514508E9, 0.0, 2023-02-27 13:46:01.514
147.0, 12126.35780887101, 6736.659316618361, -268.1315264858635, 6791.734014956238, 9171.971282001887, 5836.06282902513, 7491.075395473886, 9886.601255726964, -0.10200000000000001, 0.042, -1.004, 192.0, 0.0, 0.0, 0.0, 0.0, 0.0, 0.0, 0.0, 0.0, 0.0, 1.6775343615145144E9, 0.0, 2023-02-27 13:46:01.514
148.0, 12117.081834922057, 6738.022773030135, -267.4609741522043, 6793.052767879101, 9176.91101752651, 5835.682849369389, 7494.718729820101, 9892.122136607426, -0.10200000000000001, 0.042, -1.004, 192.0, 0.0, 0.0, 0.0, 0.0, 0.0, 0.0, 0.0, 0.0, 0.0, 1.677534361514521E9, 0.0, 2023-02-27 13:46:01.514
149.0, 12121.149852412922, 6737.061648018557, -268.3997474193272, 6793.879782423947, 9179.749689072334, 5843.505959928747, 7497.467994388104, 9892.837392429996, -0.10200000000000001, 0.04, -1.008, 192.0, 252.0, 208.0, 1.0, 64.0, 224.0, 128.0, 0.0, 0.0, 0.0, 1.6775343615145342E9, 0.0, 2023-02-27 13:46:01.514
150.0, 12137.35486714302, 6739.587395142007, -268.4668026526931, 6793.790375446127, 9193.33954970116, 5846.746962874766, 7495.7692618095, 9888.523505750121, -0.10200000000000001, 0.04, -1.008, 192.0, 0.0, 0.0, 0.0, 0.0, 0.0, 0.0, 0.0, 0.0, 0.0, 1.6775343615145411E9, 0.0, 2023-02-27 13:46:01.514
151.0, 12147.010820747713, 6742.940156810303, -267.90800904131044, 6792.0469393786125, 9191.998445033842, 5844.0647535401295, 7491.991816996553, 9887.361215038445, -0.10200000000000001, 0.04, -1.008, 192.0, 0.0, 0.0, 0.0, 0.0, 0.0, 0.0, 0.0, 0.0, 0.0, 1.6775343615145478E9, 0.0, 2023-02-27 13:46:01.514
152.0, 12136.907832253914, 6744.504778922174, -265.8516485514222, 6794.438576035331, 9193.697177612446, 5841.2484337387605, 7497.53504962147, 9890.043424373082, -0.10200000000000001, 0.04, -1.008, 192.0, 0.0, 0.0, 0.0, 0.0, 0.0, 0.0, 0.0, 0.0, 0.0, 1.6775343615145545E9, 0.0, 2023-02-27 13:46:01.514
153.0, 12138.293640410142, 6741.107313764967, -266.58925611844734, 6796.651398736406, 9197.385215447572, 5847.39516346397, 7500.418424656204, 9891.630398229408, -0.10200000000000001, 0.04, -1.008, 192.0, 0.0, 0.0, 0.0, 0.0, 0.0, 0.0, 0.0, 0.0, 0.0, 1.6775343615145607E9, 0.0, 2023-02-27 13:46:01.514
154.0, 12141.556995100618, 6737.240461974199, -268.55620963051433, 6796.673750480861, 9200.402700949038, 5842.075448283607, 7497.62445659929, 9886.645959215875, -0.10200000000000001, 0.04, -1.008, 192.0, 0.0, 0.0, 0.0, 0.0, 0.0, 0.0, 0.0, 0.0, 0.0, 1.6775343615145676E9, 0.0, 2023-02-27 13:46:01.514
155.0, 12132.169262429388, 6739.252118975177, -267.8633055523998, 6794.639741735428, 9190.232657221874, 5840.577881405102, 7494.942247264654, 9880.566284724031, -0.10200000000000001, 0.04, -1.008, 192.0, 0.0, 0.0, 0.0, 0.0, 0.0, 0.0, 0.0, 0.0, 0.0, 1.6775343615145755E9, 0.0, 2023-02-27 13:46:01.514
156.0, 12127.676561793873, 6742.068438776546, -267.3939189188384, 6794.997369646713, 9195.999407291343, 5843.550663417657, 7497.7809188104775, 9881.90738939135, -0.10200000000000001, 0.04, -1.008, 192.0, 0.0, 0.0, 0.0, 0.0, 0.0, 0.0, 0.0, 0.0, 0.0, 1.677534361514582E9, 0.0, 2023-02-27 13:46:01.514
157.0, 12130.314067639598, 6739.654450375373, -268.77972707506746, 6795.109128368989, 9197.29580846975, 5853.944224589375, 7504.084110746874, 9887.808249927552, -0.10200000000000001, 0.04, -1.008, 192.0, 0.0, 0.0, 0.0, 0.0, 0.0, 0.0, 0.0, 0.0, 0.0, 1.6775343615145884E9, 0.0, 2023-02-27 13:46:01.514
158.0, 12129.01766646119, 6737.329868952021, -269.3385206864501, 6795.265590580177, 9189.316235699205, 5851.932567588397, 7500.91016303422, 9892.859744174451, -0.10200000000000001, 0.04, -1.008, 192.0, 0.0, 0.0, 0.0, 0.0, 0.0, 0.0, 0.0, 0.0, 0.0, 1.6775343615145948E9, 0.0, 2023-02-27 13:46:01.514
159.0, 12133.97975373027, 6738.3356974525095, -269.9643695311987, 6796.405529547397, 9191.886686311565, 5847.05988729714, 7493.869363530799, 9889.52933425061, -0.10200000000000001, 0.04, -1.008, 192.0, 0.0, 0.0, 0.0, 0.0, 0.0, 0.0, 0.0, 0.0, 0.0, 1.6775343615146017E9, 0.0, 2023-02-27 13:46:01.514
160.0, 12138.360695643509, 6740.682630620317, -269.36087243090543, 6797.143137114423, 9187.595151376147, 5847.238701252782, 7493.958770508621, 9889.261113317147, -0.098, 0.038, -1.008, 192.0, 252.0, 240.0, 1.0, 48.0, 224.0, 128.0, 0.0, 0.0, 0.0, 1.6775343615146084E9, 0.0, 2023-02-27 13:46:01.514
161.0, 12134.337381641553, 6739.229767230722, -269.3385206864501, 6798.573648759562, 9187.43868916496, 5850.211483265339, 7498.317360677405, 9894.491421519688, -0.098, 0.038, -1.008, 192.0, 0.0, 0.0, 0.0, 0.0, 0.0, 0.0, 0.0, 0.0, 0.0, 1.6775343615146153E9, 0.0, 2023-02-27 13:46:01.514
162.0, 12132.370428129487, 6739.050953275079, -269.15970673080767, 6796.785509203138, 9180.91197978401, 5845.383506462992, 7497.982084510575, 9897.665369232342, -0.098, 0.038, -1.008, 192.0, 0.0, 0.0, 0.0, 0.0, 0.0, 0.0, 0.0, 0.0, 0.0, 1.677534361514622E9, 0.0, 2023-02-27 13:46:01.514
163.0, 12132.012800218201, 6739.676802119828, -268.8691340528887, 6795.109128368989, 9174.139401214052, 5840.019087793718, 7492.14827920774, 9894.3349593085, -0.098, 0.038, -1.008, 192.0, 0.0, 0.0, 0.0, 0.0, 0.0, 0.0, 0.0, 0.0, 0.0, 1.6775343615146286E9, 0.0, 2023-02-27 13:46:01.514
164.0, 12131.699875795828, 6739.341525952998, -268.0421195080423, 6794.080948124046, 9173.088869224652, 5832.10657025654, 7491.924761763187, 9888.747023194674, -0.098, 0.038, -1.008, 192.0, 0.0, 0.0, 0.0, 0.0, 0.0, 0.0, 0.0, 0.0, 0.0, 1.677534361514635E9, 0.0, 2023-02-27 13:46:01.514
165.0, 12139.455931121818, 6741.308479465066, -266.32103518498366, 6794.796203946616, 9177.693328582445, 5832.061866767629, 7501.558363623424, 9892.233895329702, -0.098, 0.038, -1.008, 192.0, 0.0, 0.0, 0.0, 0.0, 0.0, 0.0, 0.0, 0.0, 0.0, 1.6775343615146463E9, 0.0, 2023-02-27 13:46:01.514
166.0, 12147.748428314737, 6743.588357399507, -265.96340727369875, 6793.723320212761, 9170.607825590114, 5828.731456843789, 7505.089939247363, 9896.4360232873, -0.098, 0.038, -1.008, 192.0, 0.0, 0.0, 0.0, 0.0, 0.0, 0.0, 0.0, 0.0, 0.0, 1.6775343615146527E9, 0.0, 2023-02-27 13:46:01.514
167.0, 12151.011783005213, 6744.080095777524, -266.7457183296345, 6792.9857126457355, 9170.563122101203, 5830.653706866945, 7499.881982789277, 9890.333997051, -0.098, 0.038, -1.008, 192.0, 0.0, 0.0, 0.0, 0.0, 0.0, 0.0, 0.0, 0.0, 0.0, 1.6775343615146596E9, 0.0, 2023-02-27 13:46:01.514
168.0, 12137.69014330985, 6742.962508554758, -266.56690437399203, 6792.784546945638, 9173.848828536133, 5827.122131243006, 7499.1890787111615, 9884.38843302589, -0.098, 0.038, -1.008, 192.0, 0.0, 0.0, 0.0, 0.0, 0.0, 0.0, 0.0, 0.0, 0.0, 1.6775343615146663E9, 0.0, 2023-02-27 13:46:01.514
169.0, 12124.882593736958, 6738.112180007956, -267.14804972983, 6795.44440453582, 9195.440613679959, 5836.509863914235, 7501.491308390058, 9887.070642360526, -0.098, 0.038, -1.008, 192.0, 0.0, 0.0, 0.0, 0.0, 0.0, 0.0, 0.0, 0.0, 0.0, 1.6775343615146725E9, 0.0, 2023-02-27 13:46:01.514
170.0, 12131.54341358464, 6738.693325363794, -266.25397995161774, 6795.019721391168, 9191.886686311565, 5841.0696197831185, 7504.777014824988, 9887.741194694185, -0.096, 0.038, -1.004, 192.0, 253.0, 0.0, 1.0, 48.0, 224.0, 160.0, 0.0, 0.0, 0.0, 1.6775343615146792E9, 0.0, 2023-02-27 13:46:01.514
171.0, 12135.522024097685, 6740.682630620317, -265.02463400657587, 6793.231581834743, 9173.871180280588, 5837.895672070465, 7500.373721167293, 9888.277636561113, -0.096, 0.038, -1.004, 192.0, 0.0, 0.0, 0.0, 0.0, 0.0, 0.0, 0.0, 0.0, 0.0, 1.677534361514686E9, 0.0, 2023-02-27 13:46:01.514
172.0, 12131.096378695534, 6741.8002178430825, -265.0916892399418, 6791.264628322677, 9168.372651144582, 5831.570128389612, 7495.501040876036, 9883.270845803125, -0.096, 0.038, -1.004, 192.0, 0.0, 0.0, 0.0, 0.0, 0.0, 0.0, 0.0, 0.0, 0.0, 1.6775343615146928E9, 0.0, 2023-02-27 13:46:01.514
173.0, 12131.409303117909, 6742.023735287636, -264.4211369062825, 6791.599904489506, 9168.283244166762, 5830.0949132555625, 7496.86449728781, 9885.126040592915, -0.096, 0.038, -1.004, 192.0, 0.0, 0.0, 0.0, 0.0, 0.0, 0.0, 0.0, 0.0, 0.0, 1.6775343615146992E9, 0.0, 2023-02-27 13:46:01.514
174.0, 12128.30241063862, 6741.1520172538785, -264.8011165620228, 6793.589209746028, 9186.25404670883, 5834.095875513062, 7501.223087456595, 9891.026901129115, -0.096, 0.038, -1.004, 192.0, 0.0, 0.0, 0.0, 0.0, 0.0, 0.0, 0.0, 0.0, 0.0, 1.677534361514706E9, 0.0, 2023-02-27 13:46:01.514
175.0, 12129.822329261582, 6738.849787574982, -266.05281425152, 6794.550334757607, 9198.122823014597, 5829.804340577643, 7499.636113600268, 9892.524468007621, -0.096, 0.038, -1.004, 192.0, 0.0, 0.0, 0.0, 0.0, 0.0, 0.0, 0.0, 0.0, 0.0, 1.6775343615147126E9, 0.0, 2023-02-27 13:46:01.514
176.0, 12135.656134564417, 6739.9226713088365, -267.23745670765123, 6794.05859637959, 9190.38911943306, 5834.118227257518, 7494.897543775743, 9887.472973760721, -0.096, 0.038, -1.004, 192.0, 0.0, 0.0, 0.0, 0.0, 0.0, 0.0, 0.0, 0.0, 0.0, 1.6775343615147204E9, 0.0, 2023-02-27 13:46:01.514
177.0, 12127.92243098288, 6740.8614445759595, -267.1704014742853, 6794.05859637959, 9192.28901771176, 5841.047268038663, 7497.669160088201, 9888.121174349926, -0.096, 0.038, -1.004, 192.0, 0.0, 0.0, 0.0, 0.0, 0.0, 0.0, 0.0, 0.0, 0.0, 1.6775343615147269E9, 0.0, 2023-02-27 13:46:01.514
178.0, 12126.983657715757, 6737.62044162994, -267.0362910075535, 6793.2762853236545, 9190.232657221874, 5840.086143027084, 7501.468956645604, 9891.116308106937, -0.096, 0.038, -1.004, 192.0, 0.0, 0.0, 0.0, 0.0, 0.0, 0.0, 0.0, 0.0, 0.0, 1.6775343615147333E9, 0.0, 2023-02-27 13:46:01.514
179.0, 12129.218832161288, 6737.799255585583, -266.8351253074557, 6792.538677756629, 9185.829363564178, 5841.0696197831185, 7500.485479889569, 9889.954017395261, -0.096, 0.038, -1.004, 192.0, 0.0, 0.0, 0.0, 0.0, 0.0, 0.0, 0.0, 0.0, 0.0, 1.6775343615147398E9, 0.0, 2023-02-27 13:46:01.514
180.0, 12127.184823415855, 6737.486331163208, -268.69032009724623, 6792.538677756629, 9192.780756089778, 5840.86845408302, 7495.121061220296, 9882.801459169563, -0.106, 0.044, -1.002, 192.0, 252.0, 176.0, 1.0, 96.0, 224.0, 176.0, 0.0, 0.0, 0.0, 1.6775343615147464E9, 0.0, 2023-02-27 13:46:01.514
181.0, 12126.558974571106, 6737.598089885484, -268.73502358615684, 6793.119823112467, 9191.663168867013, 5841.650765138957, 7498.809099055422, 9883.136735336391, -0.106, 0.044, -1.002, 192.0, 0.0, 0.0, 0.0, 0.0, 0.0, 0.0, 0.0, 0.0, 0.0, 1.6775343615147593E9, 0.0, 2023-02-27 13:46:01.514
182.0, 12129.464701350296, 6737.776903841127, -268.0868229969529, 6795.422052791364, 9195.15004100204, 5844.891768084975, 7504.687607847168, 9890.892790662383, -0.106, 0.044, -1.002, 192.0, 0.0, 0.0, 0.0, 0.0, 0.0, 0.0, 0.0, 0.0, 0.0, 1.6775343615147657E9, 0.0, 2023-02-27 13:46:01.514
183.0, 12134.002105474723, 6739.766209097649, -269.2938171975395, 6793.231581834743, 9187.304578698227, 5836.733381358788, 7503.748834580045, 9892.077433118515, -0.106, 0.044, -1.002, 192.0, 0.0, 0.0, 0.0, 0.0, 0.0, 0.0, 0.0, 0.0, 0.0, 1.6775343615147722E9, 0.0, 2023-02-27 13:46:01.514
184.0, 12130.917564739892, 6740.1908922423, -270.2325904646624, 6792.382215545442, 9181.895456540044, 5834.520558657713, 7497.646808343746, 9886.24362781568, -0.106, 0.044, -1.002, 192.0, 0.0, 0.0, 0.0, 0.0, 0.0, 0.0, 0.0, 0.0, 0.0, 1.6775343615147789E9, 0.0, 2023-02-27 13:46:01.514
185.0, 12134.560899086107, 6739.43093293082, -269.5843898754585, 6793.768023701671, 9184.331796685672, 5842.209558750339, 7498.697340333145, 9885.796592926574, -0.106, 0.044, -1.002, 192.0, 0.0, 0.0, 0.0, 0.0, 0.0, 0.0, 0.0, 0.0, 0.0, 1.6775343615147853E9, 0.0, 2023-02-27 13:46:01.514
186.0, 12138.025419476679, 6737.62044162994, -269.5843898754585, 6796.517288269674, 9199.642741637557, 5851.038497810185, 7504.754663080534, 9890.557514495555, -0.106, 0.044, -1.002, 192.0, 0.0, 0.0, 0.0, 0.0, 0.0, 0.0, 0.0, 0.0, 0.0, 1.6775343615147917E9, 0.0, 2023-02-27 13:46:01.514
187.0, 12145.736771313761, 6739.676802119828, -269.15970673080767, 6796.360826058487, 9195.373558446594, 5846.724611130311, 7505.402863669738, 9893.709110463753, -0.106, 0.044, -1.002, 192.0, 0.0, 0.0, 0.0, 0.0, 0.0, 0.0, 0.0, 0.0, 0.0, 1.6775343615147982E9, 0.0, 2023-02-27 13:46:01.514
188.0, 12146.608489347516, 6740.302650964577, -269.0032445196205, 6795.779680702649, 9188.57862813218, 5844.265919240227, 7499.8372793003655, 9891.33982555149, -0.106, 0.044, -1.002, 192.0, 0.0, 0.0, 0.0, 0.0, 0.0, 0.0, 0.0, 0.0, 0.0, 1.6775343615148046E9, 0.0, 2023-02-27 13:46:01.514
189.0, 12137.600736332028, 6741.241424231699, -270.79138407604506, 6794.77385220216, 9190.67969211098, 5845.830541352098, 7497.512697877014, 9891.183363340302, -0.106, 0.044, -1.002, 192.0, 0.0, 0.0, 0.0, 0.0, 0.0, 0.0, 0.0, 0.0, 0.0, 1.6775343615148113E9, 0.0, 2023-02-27 13:46:01.514
190.0, 12136.393742131442, 6742.627232387928, -270.2102387202071, 6796.383177802942, 9194.7700613463, 5852.156085032951, 7503.614724113313, 9899.118232621937, -0.096, 0.038, -1.002, 192.0, 253.0, 0.0, 1.0, 48.0, 224.0, 176.0, 0.0, 0.0, 0.0, 1.6775343615148177E9, 0.0, 2023-02-27 13:46:01.514
191.0, 12143.725114312783, 6740.90614806487, -271.01490152059813, 6796.405529547397, 9194.188915990462, 5853.653651911456, 7505.022884013997, 9903.543878024087, -0.096, 0.038, -1.002, 192.0, 0.0, 0.0, 0.0, 0.0, 0.0, 0.0, 0.0, 0.0, 0.0, 1.6775343615148249E9, 0.0, 2023-02-27 13:46:01.514
192.0, 12148.083704481567, 6740.436761431309, -271.663102109802, 6796.785509203138, 9200.559163160226, 5851.150256532462, 7499.546706622447, 9899.654674488864, -0.096, 0.038, -1.002, 192.0, 0.0, 0.0, 0.0, 0.0, 0.0, 0.0, 0.0, 0.0, 0.0, 1.6775343615148313E9, 0.0, 2023-02-27 13:46:01.514
193.0, 12146.183806202866, 6742.2696044766435, -270.5455148870367, 6796.96432315878, 9204.716587628913, 5851.977271077308, 7500.19490721165, 9894.893752919883, -0.096, 0.038, -1.002, 192.0, 0.0, 0.0, 0.0, 0.0, 0.0, 0.0, 0.0, 0.0, 0.0, 1.6775343615148377E9, 0.0, 2023-02-27 13:46:01.514
194.0, 12153.179902217378, 6742.7389911102055, -270.38905267584954, 6795.466756280274, 9201.743805616356, 5852.826637366609, 7505.782843325477, 9896.883058176405, -0.096, 0.038, -1.002, 192.0, 0.0, 0.0, 0.0, 0.0, 0.0, 0.0, 0.0, 0.0, 0.0, 1.6775343615148444E9, 0.0, 2023-02-27 13:46:01.514
195.0, 12147.457855636818, 6741.263775976155, -270.2325904646624, 6795.824384191559, 9198.949837559443, 5849.92091058742, 7508.576811382391, 9904.572058269032, -0.096, 0.038, -1.002, 192.0, 0.0, 0.0, 0.0, 0.0, 0.0, 0.0, 0.0, 0.0, 0.0, 1.6775343615148509E9, 0.0, 2023-02-27 13:46:01.514
196.0, 12127.318933882587, 6734.245328217188, -272.3336544434612, 6795.891439424925, 9190.746747344345, 5848.646861153467, 7502.050102001442, 9903.67798849082, -0.096, 0.038, -1.002, 192.0, 0.0, 0.0, 0.0, 0.0, 0.0, 0.0, 0.0, 0.0, 0.0, 1.6775343615148573E9, 0.0, 2023-02-27 13:46:01.514
197.0, 12126.737788526749, 6731.339601437999, -273.16066898830763, 6794.997369646713, 9185.62819786408, 5850.524407687713, 7496.395110654249, 9894.312607564045, -0.096, 0.038, -1.002, 192.0, 0.0, 0.0, 0.0, 0.0, 0.0, 0.0, 0.0, 0.0, 0.0, 1.6775343615148697E9, 0.0, 2023-02-27 13:46:01.514
198.0, 12128.905907738914, 6731.250194460177, -271.8195643209892, 6794.930314413347, 9190.098546755142, 5849.96561407633, 7499.479651389081, 9893.999683141672, -0.096, 0.038, -1.002, 192.0, 0.0, 0.0, 0.0, 0.0, 0.0, 0.0, 0.0, 0.0, 0.0, 1.677534361514876E9, 0.0, 2023-02-27 13:46:01.514
199.0, 12138.539509599152, 6730.087903748501, -271.2160672206959, 6794.8632591799815, 9180.15202047253, 5847.708087886344, 7506.63220961478, 9897.44185178779, -0.096, 0.038, -1.002, 192.0, 0.0, 0.0, 0.0, 0.0, 0.0, 0.0, 0.0, 0.0, 0.0, 1.6775343615148826E9, 0.0, 2023-02-27 13:46:01.514
200.0, 12138.472454365785, 6726.198700213278, -273.89827655533276, 6796.182012102844, 9195.999407291343, 5853.228968766805, 7504.128814235785, 9892.859744174451, -0.1, 0.042, -0.996, 192.0, 252.0, 224.0, 1.0, 80.0, 224.0, 224.0, 0.0, 0.0, 0.0, 1.6775343615148892E9, 0.0, 2023-02-27 13:46:01.514
201.0, 12142.763989301204, 6727.942136280792, -274.6582358668132, 6794.3938725464195, 9195.552372402237, 5847.417515208425, 7498.250305444039, 9885.930703393306, -0.1, 0.042, -0.996, 192.0, 0.0, 0.0, 0.0, 0.0, 0.0, 0.0, 0.0, 0.0, 0.0, 1.677534361514896E9, 0.0, 2023-02-27 13:46:01.514
202.0, 12132.012800218201, 6732.032505516113, -273.6524073663244, 6794.77385220216, 9190.500878155337, 5846.389334963481, 7501.424253156692, 9886.824773171518, -0.1, 0.042, -0.996, 192.0, 0.0, 0.0, 0.0, 0.0, 0.0, 0.0, 0.0, 0.0, 0.0, 1.6775343615149028E9, 0.0, 2023-02-27 13:46:01.514
203.0, 12133.130387440968, 6736.502854407175, -271.953674787721, 6793.745671957216, 9169.66905232299, 5850.367945476526, 7507.749796837545, 9897.643017487886, -0.1, 0.042, -0.996, 192.0, 0.0, 0.0, 0.0, 0.0, 0.0, 0.0, 0.0, 0.0, 0.0, 1.6775343615149093E9, 0.0, 2023-02-27 13:46:01.514
204.0, 12134.627954319472, 6737.128703251923, -271.73015734316795, 6793.4550992792965, 9175.592264603647, 5845.517616929725, 7508.688570104668, 9899.095880877481, -0.1, 0.042, -0.996, 192.0, 0.0, 0.0, 0.0, 0.0, 0.0, 0.0, 0.0, 0.0, 0.0, 1.6775343615149157E9, 0.0, 2023-02-27 13:46:01.514
205.0, 12139.768855544193, 6736.659316618361, -273.6524073663244, 6793.566858001574, 9192.557238645226, 5840.779047105199, 7500.440776400659, 9890.512811006643, -0.1, 0.042, -0.996, 192.0, 0.0, 0.0, 0.0, 0.0, 0.0, 0.0, 0.0, 0.0, 0.0, 1.6775343615149224E9, 0.0, 2023-02-27 13:46:01.514
206.0, 12144.775646302181, 6734.960584039758, -274.0770905109752, 6795.1538318579005, 9198.905134070532, 5849.876207098509, 7500.485479889569, 9888.501154005666, -0.1, 0.042, -0.996, 192.0, 0.0, 0.0, 0.0, 0.0, 0.0, 0.0, 0.0, 0.0, 0.0, 1.677534361514929E9, 0.0, 2023-02-27 13:46:01.514
207.0, 12149.78243706017, 6736.346392195987, -272.6689306102909, 6795.310294069087, 9185.695253097445, 5847.931605330898, 7506.498099148047, 9894.424366286323, -0.1, 0.042, -0.996, 192.0, 0.0, 0.0, 0.0, 0.0, 0.0, 0.0, 0.0, 0.0, 0.0, 1.6775343615149355E9, 0.0, 2023-02-27 13:46:01.514
208.0, 12138.897137510436, 6735.564081140052, -273.6747591107797, 6796.539640014129, 9203.129613772586, 5846.434038452392, 7509.20266022714, 9894.58082849751, -0.1, 0.042, -0.996, 192.0, 0.0, 0.0, 0.0, 0.0, 0.0, 0.0, 0.0, 0.0, 0.0, 1.677534361514942E9, 0.0, 2023-02-27 13:46:01.514
209.0, 12145.267384680199, 6736.212281729256, -274.23355272216236, 6795.600866747006, 9203.151965517041, 5847.909253586442, 7503.167689224207, 9893.485593019199, -0.1, 0.042, -0.996, 192.0, 0.0, 0.0, 0.0, 0.0, 0.0, 0.0, 0.0, 0.0, 0.0, 1.6775343615149484E9, 0.0, 2023-02-27 13:46:01.514
210.0, 12149.31305042661, 6736.14522649589, -275.1276225003746, 6795.44440453582, 9198.614561392613, 5856.894654857476, 7501.647770601246, 9893.61970348593, -0.1, 0.04, -1.006, 192.0, 252.0, 224.0, 1.0, 64.0, 224.0, 144.0, 0.0, 0.0, 0.0, 1.6775343615149553E9, 0.0, 2023-02-27 13:46:01.514
211.0, 12134.985582230758, 6737.575738141029, -274.50177365562604, 6796.696102225316, 9196.245276480351, 5858.816904880632, 7507.168651481707, 9896.81600294304, -0.1, 0.04, -1.006, 192.0, 0.0, 0.0, 0.0, 0.0, 0.0, 0.0, 0.0, 0.0, 0.0, 1.677534361514962E9, 0.0, 2023-02-27 13:46:01.514
212.0, 12135.343210142042, 6739.900319564381, -272.44541316573776, 6797.053730136601, 9192.668997367502, 5850.949090832364, 7510.610820127824, 9899.252343088669, -0.1, 0.04, -1.006, 192.0, 0.0, 0.0, 0.0, 0.0, 0.0, 0.0, 0.0, 0.0, 0.0, 1.6775343615149732E9, 0.0, 2023-02-27 13:46:01.514
213.0, 12137.198404931833, 6740.414409686853, -272.4901166546484, 6794.438576035331, 9181.24725595084, 5847.909253586442, 7503.234744457573, 9895.631360486908, -0.1, 0.04, -1.006, 192.0, 0.0, 0.0, 0.0, 0.0, 0.0, 0.0, 0.0, 0.0, 0.0, 1.6775343615149798E9, 0.0, 2023-02-27 13:46:01.514
214.0, 12142.987506745758, 6741.017906787147, -272.6242271213802, 6795.734977213738, 9195.39591019105, 5858.25811126925, 7501.24543920105, 9889.752851695162, -0.1, 0.04, -1.006, 192.0, 0.0, 0.0, 0.0, 0.0, 0.0, 0.0, 0.0, 0.0, 0.0, 1.6775343615149865E9, 0.0, 2023-02-27 13:46:01.514
215.0, 12145.960288758313, 6741.017906787147, -271.43958466524896, 6796.852564436504, 9201.363825960616, 5855.844122868076, 7507.39216892626, 9894.737290708696, -0.1, 0.04, -1.006, 192.0, 0.0, 0.0, 0.0, 0.0, 0.0, 0.0, 0.0, 0.0, 0.0, 1.6775343615149937E9, 0.0, 2023-02-27 13:46:01.514
216.0, 12150.609451605016, 6738.179235241322, -271.8866195543551, 6797.456061536796, 9200.603866649135, 5854.503018200758, 7509.426177671693, 9896.547782009577, -0.1, 0.04, -1.006, 192.0, 0.0, 0.0, 0.0, 0.0, 0.0, 0.0, 0.0, 0.0, 0.0, 1.677534361515E9, 0.0, 2023-02-27 13:46:01.515
217.0, 12145.468550380296, 6738.00042128568, -272.06543350999755, 6796.338474314031, 9196.669959625002, 5849.809151865144, 7505.067587502907, 9893.239723830191, -0.1, 0.04, -1.006, 192.0, 0.0, 0.0, 0.0, 0.0, 0.0, 0.0, 0.0, 0.0, 0.0, 1.6775343615150068E9, 0.0, 2023-02-27 13:46:01.515
218.0, 12140.864091022504, 6738.71567710825, -272.06543350999755, 6794.639741735428, 9189.070366510197, 5846.277576241205, 7501.670122345701, 9888.76937493913, -0.1, 0.04, -1.006, 192.0, 0.0, 0.0, 0.0, 0.0, 0.0, 0.0, 0.0, 0.0, 0.0, 1.6775343615150132E9, 0.0, 2023-02-27 13:46:01.515
219.0, 12135.477320608774, 6736.748723596183, -272.6018753769249, 6794.125651612956, 9187.282226953772, 5845.361154718537, 7506.296933447949, 9891.362177295945, -0.1, 0.04, -1.006, 192.0, 0.0, 0.0, 0.0, 0.0, 0.0, 0.0, 0.0, 0.0, 0.0, 1.6775343615150208E9, 0.0, 2023-02-27 13:46:01.515
220.0, 12145.580309102574, 6740.436761431309, -270.8360875649557, 6794.460927779785, 9182.364843173606, 5835.816959836121, 7512.264849217517, 9897.754776210162, -0.10400000000000001, 0.042, -1.006, 192.0, 252.0, 192.0, 1.0, 80.0, 224.0, 144.0, 0.0, 0.0, 0.0, 1.6775343615150273E9, 0.0, 2023-02-27 13:46:01.515
221.0, 12146.519082369696, 6742.023735287636, -271.37252943188304, 6792.784546945638, 9180.8672762951, 5832.307735956638, 7510.588468383368, 9892.837392429996, -0.10400000000000001, 0.042, -1.006, 192.0, 0.0, 0.0, 0.0, 0.0, 0.0, 0.0, 0.0, 0.0, 0.0, 1.677534361515034E9, 0.0, 2023-02-27 13:46:01.515
222.0, 12150.49769288274, 6742.515473665652, -271.8866195543551, 6793.790375446127, 9187.528096142782, 5832.330087701093, 7504.844070058355, 9887.227104571713, -0.10400000000000001, 0.042, -1.006, 192.0, 0.0, 0.0, 0.0, 0.0, 0.0, 0.0, 0.0, 0.0, 0.0, 1.6775343615150406E9, 0.0, 2023-02-27 13:46:01.515
223.0, 12147.92724227038, 6742.2696044766435, -272.02073002108693, 6795.019721391168, 9196.960532302921, 5843.170683761917, 7509.493232905059, 9890.401052284367, -0.10400000000000001, 0.042, -1.006, 192.0, 0.0, 0.0, 0.0, 0.0, 0.0, 0.0, 0.0, 0.0, 0.0, 1.6775343615150473E9, 0.0, 2023-02-27 13:46:01.515
224.0, 12141.378181144975, 6741.375534698432, -271.6183986208914, 6796.182012102844, 9187.14811648704, 5859.487457214291, 7515.572907396902, 9893.418537785834, -0.10400000000000001, 0.042, -1.006, 192.0, 0.0, 0.0, 0.0, 0.0, 0.0, 0.0, 0.0, 0.0, 0.0, 1.6775343615150535E9, 0.0, 2023-02-27 13:46:01.515
225.0, 12146.742599814248, 6741.084962020513, -272.2889509545506, 6797.67957898135, 9202.749634116844, 5856.782896135199, 7516.511680664025, 9890.95984589575, -0.10400000000000001, 0.042, -1.006, 192.0, 0.0, 0.0, 0.0, 0.0, 0.0, 0.0, 0.0, 0.0, 0.0, 1.6775343615150602E9, 0.0, 2023-02-27 13:46:01.515
226.0, 12144.328611413075, 6743.834226588515, -272.06543350999755, 6796.2043638473, 9206.281209740784, 5841.20373024985, 7510.119081749807, 9888.255284816658, -0.10400000000000001, 0.042, -1.006, 192.0, 0.0, 0.0, 0.0, 0.0, 0.0, 0.0, 0.0, 0.0, 0.0, 1.6775343615150666E9, 0.0, 2023-02-27 13:46:01.515
227.0, 12141.869919522993, 6742.783694599116, -272.24424746564, 6796.24906733621, 9205.185974262473, 5850.882035598998, 7510.052026516441, 9889.082299361504, -0.10400000000000001, 0.042, -1.006, 192.0, 0.0, 0.0, 0.0, 0.0, 0.0, 0.0, 0.0, 0.0, 0.0, 1.6775343615150733E9, 0.0, 2023-02-27 13:46:01.515
228.0, 12141.73580905626, 6739.520339908641, -272.11013699890816, 6796.226715591755, 9200.849735838145, 5855.5088467012465, 7516.712846364123, 9894.87140117543, -0.10400000000000001, 0.042, -1.006, 192.0, 0.0, 0.0, 0.0, 0.0, 0.0, 0.0, 0.0, 0.0, 0.0, 1.6775343615150855E9, 0.0, 2023-02-27 13:46:01.515
229.0, 12146.675544580883, 6741.1520172538785, -270.9925497761428, 6794.751500457704, 9186.030529264275, 5855.0394600676855, 7517.651619631246, 9897.19598259878, -0.10400000000000001, 0.042, -1.006, 192.0, 0.0, 0.0, 0.0, 0.0, 0.0, 0.0, 0.0, 0.0, 0.0, 1.677534361515092E9, 0.0, 2023-02-27 13:46:01.515
230.0, 12149.223643448788, 6742.806046343571, -270.5231631425814, 6792.672788223361, 9177.67097683799, 5859.196884536372, 7509.359122438326, 9891.831563929507, -0.10200000000000001, 0.034, -1.008, 192.0, 252.0, 208.0, 1.0, 16.0, 224.0, 128.0, 0.0, 0.0, 0.0, 1.6775343615150983E9, 0.0, 2023-02-27 13:46:01.515
231.0, 12142.182843945366, 6743.521302166141, -270.5902183759473, 6795.511459769185, 9210.662151654024, 5858.839256625087, 7507.682741604179, 9892.233895329702, -0.10200000000000001, 0.034, -1.008, 192.0, 0.0, 0.0, 0.0, 0.0, 0.0, 0.0, 0.0, 0.0, 0.0, 1.6775343615151055E9, 0.0, 2023-02-27 13:46:01.515
232.0, 12145.513253869207, 6745.398848700386, -270.09847999793055, 6796.070253380568, 9213.523174944303, 5856.917006601931, 7513.270677718006, 9900.4369855448, -0.10200000000000001, 0.034, -1.008, 192.0, 0.0, 0.0, 0.0, 0.0, 0.0, 0.0, 0.0, 0.0, 0.0, 1.677534361515112E9, 0.0, 2023-02-27 13:46:01.515
233.0, 12148.240166692754, 6745.734124867216, -270.0090730201093, 6795.0420731356235, 9208.941067330965, 5854.771239134221, 7514.7458928520555, 9898.268866332635, -0.10200000000000001, 0.034, -1.008, 192.0, 0.0, 0.0, 0.0, 0.0, 0.0, 0.0, 0.0, 0.0, 0.0, 1.6775343615151184E9, 0.0, 2023-02-27 13:46:01.515
234.0, 12160.064239509611, 6744.370668455443, -270.8807910538663, 6794.483279524241, 9205.387139962571, 5854.324204245116, 7510.8119858279215, 9890.62456972892, -0.10200000000000001, 0.034, -1.008, 192.0, 0.0, 0.0, 0.0, 0.0, 0.0, 0.0, 0.0, 0.0, 0.0, 1.6775343615151253E9, 0.0, 2023-02-27 13:46:01.515
235.0, 12151.861149294515, 6744.549482411085, -271.3278259429724, 6794.3938725464195, 9204.180145761984, 5855.598253679068, 7511.43783467267, 9888.81407842804, -0.10200000000000001, 0.034, -1.008, 192.0, 0.0, 0.0, 0.0, 0.0, 0.0, 0.0, 0.0, 0.0, 0.0, 1.6775343615151317E9, 0.0, 2023-02-27 13:46:01.515
236.0, 12146.876710280982, 6746.672898134339, -269.71850034219034, 6793.946837657313, 9194.144212501551, 5852.245492010772, 7515.639962630268, 9898.313569821545, -0.10200000000000001, 0.034, -1.008, 192.0, 0.0, 0.0, 0.0, 0.0, 0.0, 0.0, 0.0, 0.0, 0.0, 1.6775343615151381E9, 0.0, 2023-02-27 13:46:01.515
237.0, 12153.045791750645, 6744.437723688809, -269.38322417536074, 6794.572686502062, 9193.496011912348, 5845.383506462992, 7517.651619631246, 9901.353407067467, -0.10200000000000001, 0.034, -1.008, 192.0, 0.0, 0.0, 0.0, 0.0, 0.0, 0.0, 0.0, 0.0, 0.0, 1.6775343615151446E9, 0.0, 2023-02-27 13:46:01.515
238.0, 12159.416038920408, 6743.633060888417, -270.14318348684117, 6794.170355101866, 9193.67482586799, 5838.745038359766, 7512.48836666207, 9894.200848841769, -0.10200000000000001, 0.034, -1.008, 192.0, 0.0, 0.0, 0.0, 0.0, 0.0, 0.0, 0.0, 0.0, 0.0, 1.6775343615151513E9, 0.0, 2023-02-27 13:46:01.515
239.0, 12152.59875686154, 6742.806046343571, -271.1937154762406, 6794.952666157802, 9196.893477069554, 5847.797494864166, 7509.20266022714, 9891.3845290404, -0.10200000000000001, 0.034, -1.008, 192.0, 0.0, 0.0, 0.0, 0.0, 0.0, 0.0, 0.0, 0.0, 0.0, 1.6775343615151577E9, 0.0, 2023-02-27 13:46:01.515
240.0, 12149.60362310453, 6742.448418432286, -270.6125701204026, 6792.762195201182, 9185.762308330812, 5841.159026760939, 7511.996628284053, 9898.492383777188, -0.10400000000000001, 0.032, -1.01, 192.0, 252.0, 192.0, 1.0, 0.0, 224.0, 112.0, 0.0, 0.0, 0.0, 1.6775343615151653E9, 0.0, 2023-02-27 13:46:01.515
241.0, 12154.252785951232, 6743.543653910596, -269.0032445196205, 6792.561029501085, 9181.96251177341, 5839.1920732488725, 7510.834337572377, 9903.365064068445, -0.10400000000000001, 0.032, -1.01, 192.0, 0.0, 0.0, 0.0, 0.0, 0.0, 0.0, 0.0, 0.0, 0.0, 1.677534361996183E9, 0.0, 2023-02-27 13:46:01.996
242.0, 12162.388820932963, 6745.577662656029, -268.26563695259534, 6790.750538200205, 9178.587398360658, 5837.470988925814, 7510.655523616734, 9899.274694833124, -0.10400000000000001, 0.032, -1.01, 192.0, 0.0, 0.0, 0.0, 0.0, 0.0, 0.0, 0.0, 0.0, 0.0, 1.6775343619962099E9, 0.0, 2023-02-27 13:46:01.996
243.0, 12161.472399410297, 6745.0859242780125, -269.5620381310032, 6790.370558544464, 9179.86144779461, 5844.981175062797, 7506.945134037153, 9894.469069775232, -0.10400000000000001, 0.032, -1.01, 192.0, 0.0, 0.0, 0.0, 0.0, 0.0, 0.0, 0.0, 0.0, 0.0, 1.677534361996225E9, 0.0, 2023-02-27 13:46:01.996
244.0, 12144.529777113174, 6744.124799266434, -269.5173346420926, 6793.700968468305, 9192.311369456216, 5848.982137320297, 7509.2250119715945, 9896.994816898683, -0.10400000000000001, 0.032, -1.01, 192.0, 0.0, 0.0, 0.0, 0.0, 0.0, 0.0, 0.0, 0.0, 0.0, 1.6775343619962628E9, 0.0, 2023-02-27 13:46:01.996
245.0, 12146.83200679207, 6744.840055089004, -269.2044102197183, 6794.952666157802, 9196.960532302921, 5850.390297220981, 7513.427139929193, 9902.515697779143, -0.10400000000000001, 0.032, -1.01, 192.0, 0.0, 0.0, 0.0, 0.0, 0.0, 0.0, 0.0, 0.0, 0.0, 1.67753436199627E9, 0.0, 2023-02-27 13:46:01.996
246.0, 12151.056486494123, 6748.0810580350235, -268.55620963051433, 6794.3938725464195, 9198.43574743697, 5849.540930931679, 7513.762416096022, 9900.884020433907, -0.10400000000000001, 0.032, -1.01, 192.0, 0.0, 0.0, 0.0, 0.0, 0.0, 0.0, 0.0, 0.0, 0.0, 1.6775343619962766E9, 0.0, 2023-02-27 13:46:01.996
247.0, 12147.591966103551, 6745.152979511378, -270.81373582050037, 6794.3938725464195, 9204.828346351189, 5846.836369852587, 7511.639000372768, 9892.90444766336, -0.10400000000000001, 0.032, -1.01, 192.0, 0.0, 0.0, 0.0, 0.0, 0.0, 0.0, 0.0, 0.0, 0.0, 1.6775343619962833E9, 0.0, 2023-02-27 13:46:01.996
248.0, 12150.765913816203, 6741.934328309814, -271.73015734316795, 6795.600866747006, 9203.599000406146, 5853.541893189179, 7513.270677718006, 9896.324264565023, -0.10400000000000001, 0.032, -1.01, 192.0, 0.0, 0.0, 0.0, 0.0, 0.0, 0.0, 0.0, 0.0, 0.0, 1.6775343619962897E9, 0.0, 2023-02-27 13:46:01.996
249.0, 12144.239204435255, 6740.123837008934, -271.953674787721, 6797.925448170358, 9210.349227231649, 5867.243512540283, 7516.86930857531, 9900.079357633515, -0.10400000000000001, 0.032, -1.01, 192.0, 0.0, 0.0, 0.0, 0.0, 0.0, 0.0, 0.0, 0.0, 0.0, 1.6775343619962964E9, 0.0, 2023-02-27 13:46:01.996
250.0, 12138.897137510436, 6738.849787574982, -273.0265585215758, 6797.791337703627, 9204.20249750644, 5861.744983404277, 7515.259982974528, 9898.693549477286, -0.10400000000000001, 0.032, -1.01, 192.0, 0.0, 0.0, 0.0, 0.0, 0.0, 0.0, 0.0, 0.0, 0.0, 1.677534361996303E9, 0.0, 2023-02-27 13:46:01.996
251.0, 12142.741637556748, 6737.508682907664, -274.6805876112685, 6796.047901636112, 9197.049939280741, 5853.653651911456, 7509.068549760408, 9894.446718030777, -0.10400000000000001, 0.034, -1.008, 192.0, 252.0, 192.0, 1.0, 16.0, 224.0, 128.0, 0.0, 0.0, 0.0, 1.6775343619963102E9, 0.0, 2023-02-27 13:46:01.996
252.0, 12140.439407877851, 6738.402752685875, -274.6135323779026, 6793.723320212761, 9189.763270588312, 5848.736268131289, 7509.940267794164, 9895.474898275721, -0.10400000000000001, 0.034, -1.008, 192.0, 0.0, 0.0, 0.0, 0.0, 0.0, 0.0, 0.0, 0.0, 0.0, 1.677534361996318E9, 0.0, 2023-02-27 13:46:01.996
253.0, 12145.803826547126, 6740.973203298236, -273.27242771058417, 6794.460927779785, 9184.354148430128, 5847.998660564263, 7515.394093441259, 9903.700340235275, -0.10400000000000001, 0.034, -1.008, 192.0, 0.0, 0.0, 0.0, 0.0, 0.0, 0.0, 0.0, 0.0, 0.0, 1.6775343619963253E9, 0.0, 2023-02-27 13:46:01.996
254.0, 12151.369410916497, 6740.1908922423, -274.23355272216236, 6796.405529547397, 9198.368692203605, 5859.576864192112, 7516.399921941748, 9903.67798849082, -0.10400000000000001, 0.034, -1.008, 192.0, 0.0, 0.0, 0.0, 0.0, 0.0, 0.0, 0.0, 0.0, 0.0, 1.677534361996332E9, 0.0, 2023-02-27 13:46:01.996
255.0, 12153.649288850938, 6742.448418432286, -274.81469807800033, 6794.460927779785, 9197.29580846975, 5858.369869991526, 7514.187099240673, 9899.274694833124, -0.10400000000000001, 0.034, -1.008, 192.0, 0.0, 0.0, 0.0, 0.0, 0.0, 0.0, 0.0, 0.0, 0.0, 1.6775343619963388E9, 0.0, 2023-02-27 13:46:01.996
0.0, 12146.004992247224, 6744.594185899996, -273.2947794550395, 6794.326817313054, 9202.503764927837, 5852.603119922057, 7513.315381206916, 9898.224162843724, -0.10400000000000001, 0.034, -1.008, 192.0, 0.0, 0.0, 0.0, 0.0, 0.0, 0.0, 0.0, 0.0, 0.0, 1.6775343619963458E9, 0.0, 2023-02-27 13:46:01.996
1.0, 12139.075951466079, 6741.934328309814, -272.6465788658355, 6796.4502330363075, 9204.046035295252, 5857.788724635688, 7515.081169018886, 9903.633285001908, -0.10400000000000001, 0.034, -1.008, 192.0, 0.0, 0.0, 0.0, 0.0, 0.0, 0.0, 0.0, 0.0, 0.0, 1.677534361996353E9, 0.0, 2023-02-27 13:46:01.996
2.0, 12142.093436967545, 6739.520339908641, -272.4901166546484, 6796.517288269674, 9201.185012004973, 5856.738192646289, 7515.237631230072, 9906.091976891992, -0.10400000000000001, 0.034, -1.008, 192.0, 0.0, 0.0, 0.0, 0.0, 0.0, 0.0, 0.0, 0.0, 0.0, 1.67753436199636E9, 0.0, 2023-02-27 13:46:01.996
3.0, 12159.281928453676, 6740.436761431309, -272.7806893325674, 6795.578515002551, 9197.139346258564, 5855.06181181214, 7511.147261994751, 9899.252343088669, -0.10400000000000001, 0.034, -1.008, 192.0, 0.0, 0.0, 0.0, 0.0, 0.0, 0.0, 0.0, 0.0, 0.0, 1.6775343619963672E9, 0.0, 2023-02-27 13:46:01.996
4.0, 12156.085628996567, 6743.342488210498, -272.44541316573776, 6795.3326458135425, 9197.027587536286, 5852.558416433146, 7510.186136983173, 9898.179459354813, -0.10400000000000001, 0.034, -1.008, 192.0, 0.0, 0.0, 0.0, 0.0, 0.0, 0.0, 0.0, 0.0, 0.0, 1.6775343619963813E9, 0.0, 2023-02-27 13:46:01.996
5.0, 12147.569614359096, 6744.214206244255, -272.2665992100953, 6795.936142913836, 9203.39783470605, 5857.252282768761, 7513.829471329388, 9905.19790711378, -0.10400000000000001, 0.032, -1.008, 192.0, 252.0, 192.0, 1.0, 0.0, 224.0, 128.0, 0.0, 0.0, 0.0, 1.6775343619963953E9, 0.0, 2023-02-27 13:46:01.996
6.0, 12146.474378880785, 6744.348316710987, -272.1771922322741, 6796.114956869478, 9198.838078837167, 5850.077372798607, 7519.350352209849, 9905.667293747341, -0.10400000000000001, 0.032, -1.008, 192.0, 0.0, 0.0, 0.0, 0.0, 0.0, 0.0, 0.0, 0.0, 0.0, 1.6775343619964025E9, 0.0, 2023-02-27 13:46:01.996
7.0, 12154.789227818159, 6746.784656856616, -272.6242271213802, 6793.4550992792965, 9185.091755997153, 5840.48847442728, 7515.394093441259, 9900.839316944996, -0.10400000000000001, 0.032, -1.008, 192.0, 0.0, 0.0, 0.0, 0.0, 0.0, 0.0, 0.0, 0.0, 0.0, 1.6775343619964087E9, 0.0, 2023-02-27 13:46:01.996
8.0, 12157.717306341805, 6745.979994056224, -272.7136340992015, 6792.873953923458, 9181.7166425844, 5846.165817518928, 7513.002456784542, 9896.994816898683, -0.10400000000000001, 0.032, -1.008, 192.0, 0.0, 0.0, 0.0, 0.0, 0.0, 0.0, 0.0, 0.0, 0.0, 1.6775343619964156E9, 0.0, 2023-02-27 13:46:01.996
9.0, 12149.022477748691, 6739.989726542202, -274.14414574434113, 6795.377349302453, 9198.502802670337, 5856.469971712825, 7515.192927741162, 9899.00647389966, -0.10400000000000001, 0.032, -1.008, 192.0, 0.0, 0.0, 0.0, 0.0, 0.0, 0.0, 0.0, 0.0, 0.0, 1.677534361996422E9, 0.0, 2023-02-27 13:46:01.996
10.0, 12144.105093968523, 6737.329868952021, -274.7029393557238, 6796.2043638473, 9194.904171813032, 5860.336823503593, 7517.226936486595, 9900.861668689451, -0.10400000000000001, 0.032, -1.008, 192.0, 0.0, 0.0, 0.0, 0.0, 0.0, 0.0, 0.0, 0.0, 0.0, 1.6775343619964285E9, 0.0, 2023-02-27 13:46:01.996
11.0, 12141.02055323369, 6736.078171262524, -274.83704982245564, 6796.472584780763, 9204.113090528619, 5857.788724635688, 7515.997590541553, 9896.10074712047, -0.10400000000000001, 0.032, -1.008, 192.0, 0.0, 0.0, 0.0, 0.0, 0.0, 0.0, 0.0, 0.0, 0.0, 1.6775343619964352E9, 0.0, 2023-02-27 13:46:01.996
12.0, 12134.896175252936, 6733.708886350261, -275.7311196006679, 6796.070253380568, 9210.885669098578, 5856.984061835296, 7511.616648628313, 9892.412709285345, -0.10400000000000001, 0.032, -1.008, 192.0, 0.0, 0.0, 0.0, 0.0, 0.0, 0.0, 0.0, 0.0, 0.0, 1.6775343619964416E9, 0.0, 2023-02-27 13:46:01.996
13.0, 12145.736771313761, 6732.546595638585, -275.57465738948076, 6796.226715591755, 9203.040206794763, 5860.359175248048, 7513.270677718006, 9898.760604710651, -0.10400000000000001, 0.032, -1.008, 192.0, 0.0, 0.0, 0.0, 0.0, 0.0, 0.0, 0.0, 0.0, 0.0, 1.6775343619964485E9, 0.0, 2023-02-27 13:46:01.996
14.0, 12145.669716080394, 6733.753589839172, -274.18884923325174, 6796.383177802942, 9207.44350045246, 5858.124000802517, 7517.137529508774, 9903.745043724186, -0.10400000000000001, 0.032, -1.008, 192.0, 0.0, 0.0, 0.0, 0.0, 0.0, 0.0, 0.0, 0.0, 0.0, 1.6775343619964547E9, 0.0, 2023-02-27 13:46:01.996
15.0, 12137.131349698468, 6735.631136373418, -274.27825621107297, 6793.902134168403, 9197.139346258564, 5855.955881590353, 7514.164747496217, 9900.548744267076, -0.106, 0.034, -1.006, 192.0, 252.0, 176.0, 1.0, 16.0, 224.0, 144.0, 0.0, 0.0, 0.0, 1.6775343619964614E9, 0.0, 2023-02-27 13:46:01.996
16.0, 12132.63864906295, 6734.5806043840175, -275.0605672670087, 6793.075119623557, 9198.033416036775, 5850.278538498705, 7509.96261953862, 9894.692587219786, -0.106, 0.034, -1.006, 192.0, 0.0, 0.0, 0.0, 0.0, 0.0, 0.0, 0.0, 0.0, 0.0, 1.6775343619964685E9, 0.0, 2023-02-27 13:46:01.996
17.0, 12135.611431075506, 6735.117046250945, -274.6358841223579, 6792.672788223361, 9192.356072945127, 5846.746962874766, 7513.1589189957285, 9895.34078780899, -0.106, 0.034, -1.006, 192.0, 0.0, 0.0, 0.0, 0.0, 0.0, 0.0, 0.0, 0.0, 0.0, 1.6775343619964752E9, 0.0, 2023-02-27 13:46:01.996
18.0, 12133.890346752447, 6736.324040451532, -273.697110855235, 6793.4550992792965, 9192.177258989484, 5850.703221643355, 7516.176404497195, 9904.214430357746, -0.106, 0.034, -1.006, 192.0, 0.0, 0.0, 0.0, 0.0, 0.0, 0.0, 0.0, 0.0, 0.0, 1.6775343619964817E9, 0.0, 2023-02-27 13:46:01.996
19.0, 12134.40443687492, 6736.569909640541, -274.4570701667154, 6795.287942324632, 9203.643703895057, 5863.331957260604, 7514.611782385324, 9904.147375124381, -0.106, 0.034, -1.006, 192.0, 0.0, 0.0, 0.0, 0.0, 0.0, 0.0, 0.0, 0.0, 0.0, 1.677534361996488E9, 0.0, 2023-02-27 13:46:01.996
20.0, 12137.44427412084, 6737.2181102297445, -274.27825621107297, 6794.237410335232, 9198.703968370435, 5860.448582225869, 7509.24736371605, 9898.090052376992, -0.106, 0.034, -1.006, 192.0, 0.0, 0.0, 0.0, 0.0, 0.0, 0.0, 0.0, 0.0, 0.0, 1.6775343619964995E9, 0.0, 2023-02-27 13:46:01.996
21.0, 12140.26059392221, 6736.212281729256, -274.50177365562604, 6793.142174856923, 9191.86433456711, 5858.25811126925, 7511.214317228118, 9897.888886676894, -0.106, 0.034, -1.006, 192.0, 0.0, 0.0, 0.0, 0.0, 0.0, 0.0, 0.0, 0.0, 0.0, 1.6775343619965065E9, 0.0, 2023-02-27 13:46:01.996
22.0, 12148.016649248202, 6736.324040451532, -274.0323870220646, 6794.371520801964, 9196.714663113913, 5855.553550190157, 7516.310514963927, 9904.616761757941, -0.106, 0.034, -1.006, 192.0, 0.0, 0.0, 0.0, 0.0, 0.0, 0.0, 0.0, 0.0, 0.0, 1.677534361996513E9, 0.0, 2023-02-27 13:46:01.996
23.0, 12155.21391096281, 6736.569909640541, -273.4512416662266, 6793.432747534842, 9199.128651515086, 5850.770276876721, 7519.484462676581, 9905.421424558333, -0.106, 0.034, -1.006, 192.0, 0.0, 0.0, 0.0, 0.0, 0.0, 0.0, 0.0, 0.0, 0.0, 1.677534361996519E9, 0.0, 2023-02-27 13:46:01.996
24.0, 12146.899062025435, 6736.994592785191, -274.3006079555283, 6792.069291123068, 9195.306503213227, 5850.077372798607, 7514.410616685226, 9898.045348888081, -0.106, 0.034, -1.006, 192.0, 0.0, 0.0, 0.0, 0.0, 0.0, 0.0, 0.0, 0.0, 0.0, 1.6775343619965258E9, 0.0, 2023-02-27 13:46:01.996
25.0, 12141.333477656064, 6738.805084086071, -273.7194625996903, 6791.421090533864, 9194.971227046399, 5844.891768084975, 7513.449491673648, 9895.988988398194, -0.1, 0.044, -1.004, 192.0, 252.0, 224.0, 1.0, 96.0, 224.0, 160.0, 0.0, 0.0, 0.0, 1.6775343619965324E9, 0.0, 2023-02-27 13:46:01.996
26.0, 12141.73580905626, 6740.615575386951, -271.8866195543551, 6791.666959722872, 9185.315273441705, 5846.568148919124, 7518.746855109555, 9903.968561168738, -0.1, 0.044, -1.004, 192.0, 0.0, 0.0, 0.0, 0.0, 0.0, 0.0, 0.0, 0.0, 0.0, 1.6775343619965396E9, 0.0, 2023-02-27 13:46:01.996
