%OpenBCI Raw EEG Data
%Number of channels = 8
%Sample Rate = 250 Hz
%Board = OpenBCI_GUI$BoardCytonSerial
Sample Index, EXG Channel 0, EXG Channel 1, EXG Channel 2, EXG Channel 3, EXG Channel 4, EXG Channel 5, EXG Channel 6, EXG Channel 7, Accel Channel 0, Accel Channel 1, Accel Channel 2, Other, Other, Other, Other, Other, Other, Other, Analog Channel 0, Analog Channel 1, Analog Channel 2, Timestamp, Other, Timestamp (Formatted)
0.0, 0.0, 0.0, 0.0, 0.0, 0.0, 0.0, 0.0, 0.0, 0.202, -0.746, 0.6980000000000001, 192.0, 6.0, 80.0, 232.0, 176.0, 21.0, 208.0, 0.0, 0.0, 0.0, 1.6775380752447758E9, 0.0, 2023-02-27 14:47:55.244
1.0, 3884.867296799099, 2192.6167240878017, 992.9091921936504, 2607.129825011471, -5715.60927815548, -4919.551899379719, -1046.8663033087616, -760.3392911361803, 0.202, -0.746, 0.6980000000000001, 192.0, 0.0, 0.0, 0.0, 0.0, 0.0, 0.0, 0.0, 0.0, 0.0, 1.6775380757234576E9, 0.0, 2023-02-27 14:47:55.723
2.0, 3887.5048026448258, 2191.275619420483, 992.4845090489995, 2603.2853249651585, -5709.216679241262, -4915.461530144397, -1047.045117264404, -764.4743638604122, 0.202, -0.746, 0.6980000000000001, 192.0, 0.0, 0.0, 0.0, 0.0, 0.0, 0.0, 0.0, 0.0, 0.0, 1.6775380757234857E9, 0.0, 2023-02-27 14:47:55.723
3.0, 3890.231715468373, 2189.4427763751482, 991.2551631039577, 2603.0394557761497, -5700.7453680927, -4923.016419770292, -1045.435791663622, -769.3246924072138, 0.202, -0.746, 0.6980000000000001, 192.0, 0.0, 0.0, 0.0, 0.0, 0.0, 0.0, 0.0, 0.0, 0.0, 1.677538075723498E9, 0.0, 2023-02-27 14:47:55.723
4.0, 3891.5951718801466, 2190.895639764743, 991.6574945041532, 2605.162871499404, -5707.093263518008, -4947.469228204397, -1043.7594108294738, -765.7931167832753, 0.202, -0.746, 0.6980000000000001, 192.0, 0.0, 0.0, 0.0, 0.0, 0.0, 0.0, 0.0, 0.0, 0.0, 1.6775380757235117E9, 0.0, 2023-02-27 14:47:55.723
5.0, 3889.762328834812, 2194.158994455218, 993.5126892939436, 2607.353342456024, -5712.6364961429235, -4954.711193407917, -1041.8371608063176, -762.2838929037921, 0.202, -0.746, 0.6980000000000001, 192.0, 0.0, 0.0, 0.0, 0.0, 0.0, 0.0, 0.0, 0.0, 0.0, 1.6775380757235222E9, 0.0, 2023-02-27 14:47:55.723
6.0, 3893.4950701588477, 2192.7731862989885, 992.8421369602844, 2603.6429528764434, -5710.915411819865, -4925.229242471367, -1042.686527095619, -766.9330557504959, 0.202, -0.746, 0.6980000000000001, 192.0, 0.0, 0.0, 0.0, 0.0, 0.0, 0.0, 0.0, 0.0, 0.0, 1.677538075723536E9, 0.0, 2023-02-27 14:47:55.723
7.0, 3889.4717561568928, 2188.4816513635697, 991.5904392707872, 2603.508842409711, -5706.981504795731, -4905.738521306339, -1044.631128863231, -769.6376168295881, 0.202, -0.746, 0.6980000000000001, 192.0, 0.0, 0.0, 0.0, 0.0, 0.0, 0.0, 0.0, 0.0, 0.0, 1.6775380757235448E9, 0.0, 2023-02-27 14:47:55.723
8.0, 3886.2754566997837, 2183.2736949054834, 988.6176572582314, 2605.676961621876, -5701.46062391527, -4920.043637757735, -1047.693317853608, -769.1235267071161, 0.20600000000000002, -0.758, 0.684, 192.0, 6.0, 112.0, 232.0, 80.0, 21.0, 96.0, 0.0, 0.0, 0.0, 1.6775380757235527E9, 0.0, 2023-02-27 14:47:55.723
9.0, 3884.9567037769207, 2182.7819565274667, 987.5224217799214, 2606.5263279111778, -5707.115615262463, -4940.115504278601, -1049.5708643878538, -767.8718290176188, 0.20600000000000002, -0.758, 0.684, 192.0, 0.0, 0.0, 0.0, 0.0, 0.0, 0.0, 0.0, 0.0, 0.0, 1.6775380757235608E9, 0.0, 2023-02-27 14:47:55.723
10.0, 3883.973227020887, 2183.2066396721175, 989.1093956362481, 2604.715836610298, -5712.703551376289, -4930.7724750962825, -1049.5038091544877, -768.0506429732612, 0.20600000000000002, -0.758, 0.684, 192.0, 0.0, 0.0, 0.0, 0.0, 0.0, 0.0, 0.0, 0.0, 0.0, 1.677538075723568E9, 0.0, 2023-02-27 14:47:55.723
11.0, 3885.3143316882056, 2182.826660016377, 989.6011340142649, 2601.586592386555, -5712.658847887379, -4922.055294758713, -1049.5708643878538, -768.7435470513758, 0.20600000000000002, -0.758, 0.684, 192.0, 0.0, 0.0, 0.0, 0.0, 0.0, 0.0, 0.0, 0.0, 0.0, 1.6775380757235754E9, 0.0, 2023-02-27 14:47:55.723
12.0, 3882.8109363092112, 2182.312569893905, 989.7128927365414, 2603.9782290432727, -5725.309935249083, -4929.878405318071, -1048.8332568208286, -767.6483115730657, 0.20600000000000002, -0.758, 0.684, 192.0, 0.0, 0.0, 0.0, 0.0, 0.0, 0.0, 0.0, 0.0, 0.0, 1.677538075723583E9, 0.0, 2023-02-27 14:47:55.723
13.0, 3882.4533083979263, 2182.6925495496453, 989.5117270364436, 2606.459272677812, -5737.044601088119, -4937.612108899607, -1047.8274283203398, -766.0836894611942, 0.20600000000000002, -0.758, 0.684, 192.0, 0.0, 0.0, 0.0, 0.0, 0.0, 0.0, 0.0, 0.0, 0.0, 1.6775380757235904E9, 0.0, 2023-02-27 14:47:55.723
14.0, 3887.3706921780936, 2184.994779228542, 990.7187212370302, 2603.262973220703, -5743.973641869265, -4936.5839286546625, -1045.3463846858008, -766.1507446945602, 0.20600000000000002, -0.758, 0.684, 192.0, 0.0, 0.0, 0.0, 0.0, 0.0, 0.0, 0.0, 0.0, 0.0, 1.6775380757235973E9, 0.0, 2023-02-27 14:47:55.723
15.0, 3898.211288238918, 2190.7838810424664, 994.4067590721559, 2596.2221737172813, -5749.025136116164, -4947.759800882316, -1042.6641753511637, -763.4685353599233, 0.20600000000000002, -0.758, 0.684, 192.0, 0.0, 0.0, 0.0, 0.0, 0.0, 0.0, 0.0, 0.0, 0.0, 1.6775380757236044E9, 0.0, 2023-02-27 14:47:55.723
16.0, 3889.2929422012503, 2190.0462734754415, 994.272648605424, 2599.485528407756, -5728.930917850843, -4956.454629475431, -1042.7312305845298, -764.2284946714037, 0.20600000000000002, -0.758, 0.684, 192.0, 0.0, 0.0, 0.0, 0.0, 0.0, 0.0, 0.0, 0.0, 0.0, 1.677538075723612E9, 0.0, 2023-02-27 14:47:55.723
17.0, 3878.944084518443, 2187.5875815853574, 991.8810119487063, 2605.833423833063, -5712.971772309754, -4942.328326979677, -1046.2181027195577, -764.8543435161524, 0.20600000000000002, -0.758, 0.684, 192.0, 0.0, 0.0, 0.0, 0.0, 0.0, 0.0, 0.0, 0.0, 0.0, 1.6775380757237284E9, 0.0, 2023-02-27 14:47:55.723
18.0, 3882.877991542577, 2188.258133919017, 990.852831703762, 2603.218269731792, -5730.696705662812, -4928.537300650752, -1047.9838905315269, -764.8096400272418, 0.212, -0.76, 0.686, 192.0, 6.0, 160.0, 232.0, 64.0, 21.0, 112.0, 0.0, 0.0, 0.0, 1.6775380757237363E9, 0.0, 2023-02-27 14:47:55.723
19.0, 3897.9877707943647, 2194.449567133137, 994.5632212833431, 2594.7916620721417, -5757.675261220367, -4951.64900441754, -1042.239492206513, -763.2003144264596, 0.212, -0.76, 0.686, 192.0, 0.0, 0.0, 0.0, 0.0, 0.0, 0.0, 0.0, 0.0, 0.0, 1.6775380757237444E9, 0.0, 2023-02-27 14:47:55.723
20.0, 3892.1763172359847, 2191.5214886094914, 993.535041038399, 2597.5632783845995, -5734.675316175856, -4951.6713561619945, -1043.0888584958147, -763.8708667601188, 0.212, -0.76, 0.686, 192.0, 0.0, 0.0, 0.0, 0.0, 0.0, 0.0, 0.0, 0.0, 0.0, 1.6775380757237513E9, 0.0, 2023-02-27 14:47:55.723
21.0, 3876.708910072912, 2183.117232694296, 991.0316456594045, 2610.5719936575883, -5691.067062743552, -4920.334210435654, -1048.4532771650884, -764.6978813049652, 0.212, -0.76, 0.686, 192.0, 0.0, 0.0, 0.0, 0.0, 0.0, 0.0, 0.0, 0.0, 0.0, 1.6775380757237587E9, 0.0, 2023-02-27 14:47:55.723
22.0, 3883.168564220496, 2186.7829187849666, 992.1268811377146, 2608.8956128234404, -5711.675371131346, -4938.4614751889085, -1048.788553331918, -762.6862243039876, 0.212, -0.76, 0.686, 192.0, 0.0, 0.0, 0.0, 0.0, 0.0, 0.0, 0.0, 0.0, 0.0, 1.6775380757237728E9, 0.0, 2023-02-27 14:47:55.723
23.0, 3895.998465537842, 2194.091939221852, 994.4961660499771, 2600.1113772525046, -5723.834720115033, -4962.690766178461, -1042.6641753511637, -764.2508464158591, 0.212, -0.76, 0.686, 192.0, 0.0, 0.0, 0.0, 0.0, 0.0, 0.0, 0.0, 0.0, 0.0, 1.67753807572378E9, 0.0, 2023-02-27 14:47:55.723
24.0, 3894.4338434259707, 2193.510793866014, 993.6020962717648, 2599.843156319041, -5710.781301353133, -4951.112562550612, -1042.3065474398788, -766.6871865614876, 0.212, -0.76, 0.686, 192.0, 0.0, 0.0, 0.0, 0.0, 0.0, 0.0, 0.0, 0.0, 0.0, 1.6775380757237868E9, 0.0, 2023-02-27 14:47:55.723
25.0, 3885.269628199295, 2190.381549642271, 993.691503249586, 2606.191051744348, -5715.989257811219, -4923.821082570682, -1047.2015794755912, -765.0108057273395, 0.212, -0.76, 0.686, 192.0, 0.0, 0.0, 0.0, 0.0, 0.0, 0.0, 0.0, 0.0, 0.0, 1.677538075723794E9, 0.0, 2023-02-27 14:47:55.723
26.0, 3882.229790953373, 2190.538011853458, 992.5515642823655, 2607.5098046672115, -5718.738522379223, -4922.815254070193, -1050.8896173107169, -763.8485150156636, 0.212, -0.76, 0.686, 192.0, 0.0, 0.0, 0.0, 0.0, 0.0, 0.0, 0.0, 0.0, 0.0, 1.677538075723801E9, 0.0, 2023-02-27 14:47:55.723
27.0, 3886.297808444239, 2196.349465411838, 995.2561253614576, 2600.290191208147, -5723.99118232622, -4935.131065265067, -1046.620434119753, -764.1167359491272, 0.212, -0.76, 0.686, 192.0, 0.0, 0.0, 0.0, 0.0, 0.0, 0.0, 0.0, 0.0, 0.0, 1.677538075723808E9, 0.0, 2023-02-27 14:47:55.723
28.0, 3886.6330846110686, 2196.0365409894634, 994.5185177944325, 2596.915077795396, -5728.103903305996, -4933.8793675755705, -1045.592253874809, -766.8212970282194, 0.20800000000000002, -0.76, 0.684, 192.0, 6.0, 128.0, 232.0, 64.0, 21.0, 96.0, 0.0, 0.0, 0.0, 1.677538075723815E9, 0.0, 2023-02-27 14:47:55.723
29.0, 3890.1870119794626, 2195.9471340116424, 993.9820759275051, 2602.100682509027, -5725.309935249083, -4928.984335539858, -1046.463971908566, -765.1225644496161, 0.20800000000000002, -0.76, 0.684, 192.0, 0.0, 0.0, 0.0, 0.0, 0.0, 0.0, 0.0, 0.0, 0.0, 1.6775380757238224E9, 0.0, 2023-02-27 14:47:55.723
30.0, 3893.428014925482, 2196.416520645204, 994.6079247722537, 2604.805243588119, -5727.835682372533, -4941.83658860166, -1045.7263643415408, -762.5521138372558, 0.20800000000000002, -0.76, 0.684, 192.0, 0.0, 0.0, 0.0, 0.0, 0.0, 0.0, 0.0, 0.0, 0.0, 1.6775380757238295E9, 0.0, 2023-02-27 14:47:55.723
31.0, 3892.2210207248954, 2197.109424723318, 995.3902358281895, 2599.887859807952, -5724.974659082253, -4940.07080078969, -1044.7652393299627, -763.8932185045742, 0.20800000000000002, -0.76, 0.684, 192.0, 0.0, 0.0, 0.0, 0.0, 0.0, 0.0, 0.0, 0.0, 0.0, 1.677538075723837E9, 0.0, 2023-02-27 14:47:55.723
32.0, 3887.5718578781916, 2194.7848432999663, 994.5855730277983, 2595.3057521946134, -5725.332286993538, -4938.59558565564, -1044.0276317629375, -767.7600702953423, 0.20800000000000002, -0.76, 0.684, 192.0, 0.0, 0.0, 0.0, 0.0, 0.0, 0.0, 0.0, 0.0, 0.0, 1.6775380757238436E9, 0.0, 2023-02-27 14:47:55.723
33.0, 3890.075253257186, 2191.3650263983045, 992.7080264935526, 2598.8596795630074, -5726.539281194125, -4927.464416916897, -1045.4134399191666, -766.9107040060406, 0.20800000000000002, -0.76, 0.684, 192.0, 0.0, 0.0, 0.0, 0.0, 0.0, 0.0, 0.0, 0.0, 0.0, 1.677538075723873E9, 0.0, 2023-02-27 14:47:55.723
34.0, 3886.141346233052, 2188.369892641293, 990.4728520480219, 2602.9500487983287, -5731.858996374488, -4926.033905271757, -1048.1180009982588, -764.5861225826887, 0.20800000000000002, -0.76, 0.684, 192.0, 0.0, 0.0, 0.0, 0.0, 0.0, 0.0, 0.0, 0.0, 0.0, 1.6775380757238798E9, 0.0, 2023-02-27 14:47:55.723
35.0, 3891.975151535887, 2189.6215903307907, 992.4845090489995, 2601.4301301753676, -5721.9124700918765, -4924.581041882163, -1046.7321928420297, -764.4520121159569, 0.20800000000000002, -0.76, 0.684, 192.0, 0.0, 0.0, 0.0, 0.0, 0.0, 0.0, 0.0, 0.0, 0.0, 1.6775380757238867E9, 0.0, 2023-02-27 14:47:55.723
36.0, 3890.432881168471, 2188.414596130204, 992.2833433489018, 2598.099720251527, -5718.000914812197, -4929.319611706688, -1046.106343997281, -766.8883522615853, 0.20800000000000002, -0.76, 0.684, 192.0, 0.0, 0.0, 0.0, 0.0, 0.0, 0.0, 0.0, 0.0, 0.0, 1.677538075723894E9, 0.0, 2023-02-27 14:47:55.723
37.0, 3885.940180532954, 2186.4699943625924, 991.0987008927705, 2600.0890255080494, -5725.332286993538, -4927.911451806003, -1046.3298614418343, -766.4636691169345, 0.20800000000000002, -0.76, 0.684, 192.0, 0.0, 0.0, 0.0, 0.0, 0.0, 0.0, 0.0, 0.0, 0.0, 1.677538075723901E9, 0.0, 2023-02-27 14:47:55.723
38.0, 3888.175354978485, 2187.05113971843, 990.6516660036643, 2603.173566242882, -5729.333249251038, -4922.7258470923725, -1046.5310271419319, -764.0049772268507, 0.20600000000000002, -0.756, 0.682, 192.0, 6.0, 112.0, 232.0, 96.0, 21.0, 80.0, 0.0, 0.0, 0.0, 1.677538075723908E9, 0.0, 2023-02-27 14:47:55.723
39.0, 3896.043169026753, 2188.2357821745613, 990.9645904260386, 2600.6031156305216, -5729.914394606876, -4924.335172693154, -1046.4192684196555, -763.736756293387, 0.20600000000000002, -0.756, 0.682, 192.0, 0.0, 0.0, 0.0, 0.0, 0.0, 0.0, 0.0, 0.0, 0.0, 1.677538075723915E9, 0.0, 2023-02-27 14:47:55.723
40.0, 3899.7535586063336, 2187.766395541, 991.724549737519, 2595.663380105899, -5732.507196963692, -4929.721943106883, -1044.0946869963036, -767.1789249395043, 0.20600000000000002, -0.756, 0.682, 192.0, 0.0, 0.0, 0.0, 0.0, 0.0, 0.0, 0.0, 0.0, 0.0, 1.677538075723922E9, 0.0, 2023-02-27 14:47:55.723
41.0, 3902.5698784077026, 2190.828584531377, 994.3844073277006, 2596.289228950647, -5739.391534255927, -4940.294318234243, -1039.4455241495996, -764.9437504939737, 0.20600000000000002, -0.756, 0.682, 192.0, 0.0, 0.0, 0.0, 0.0, 0.0, 0.0, 0.0, 0.0, 0.0, 1.6775380757239292E9, 0.0, 2023-02-27 14:47:55.723
42.0, 3905.2520877423394, 2193.801366543933, 994.8984974501726, 2599.4631766633006, -5729.199138784306, -4960.83557138867, -1038.4843991380214, -760.8533812586525, 0.20600000000000002, -0.756, 0.682, 192.0, 0.0, 0.0, 0.0, 0.0, 0.0, 0.0, 0.0, 0.0, 0.0, 1.6775380757239363E9, 0.0, 2023-02-27 14:47:55.723
43.0, 3896.7584248493226, 2196.6623898342123, 995.6361050171978, 2597.7867958291527, -5719.498481690703, -4974.64894946205, -1038.0373642489153, -760.607512069644, 0.20600000000000002, -0.756, 0.682, 192.0, 0.0, 0.0, 0.0, 0.0, 0.0, 0.0, 0.0, 0.0, 0.0, 1.6775380757239447E9, 0.0, 2023-02-27 14:47:55.723
44.0, 3893.651532370035, 2196.0365409894634, 995.6808085061084, 2592.9811707712615, -5716.413940955871, -4965.060051090723, -1036.4280386481332, -764.2284946714037, 0.20600000000000002, -0.756, 0.682, 192.0, 0.0, 0.0, 0.0, 0.0, 0.0, 0.0, 0.0, 0.0, 0.0, 1.6775380757239516E9, 0.0, 2023-02-27 14:47:55.723
45.0, 3899.9994277953424, 2192.4602618766144, 993.4009305716671, 2597.4515196623233, -5703.695798360801, -4929.319611706688, -1040.1384282277143, -766.4860208613898, 0.20600000000000002, -0.756, 0.682, 192.0, 0.0, 0.0, 0.0, 0.0, 0.0, 0.0, 0.0, 0.0, 0.0, 1.6775380757239585E9, 0.0, 2023-02-27 14:47:55.723
46.0, 3895.976113793387, 2189.375721141782, 991.5904392707872, 2605.676961621876, -5699.068987258553, -4901.4246346264645, -1044.20644571858, -766.2401516723814, 0.20600000000000002, -0.756, 0.682, 192.0, 0.0, 0.0, 0.0, 0.0, 0.0, 0.0, 0.0, 0.0, 0.0, 1.6775380757239652E9, 0.0, 2023-02-27 14:47:55.723
47.0, 3889.807032323722, 2190.3368461533605, 992.8421369602844, 2605.811072088608, -5713.664676387868, -4896.820175268671, -1043.5805968738314, -762.3285963927027, 0.20600000000000002, -0.756, 0.682, 192.0, 0.0, 0.0, 0.0, 0.0, 0.0, 0.0, 0.0, 0.0, 0.0, 1.677538075723972E9, 0.0, 2023-02-27 14:47:55.723
48.0, 3892.9139248030096, 2192.3261514098826, 993.5126892939436, 2599.0831970075606, -5721.241917758217, -4908.197213196423, -1042.5077131399767, -763.8708667601188, 0.20800000000000002, -0.756, 0.68, 192.0, 6.0, 128.0, 232.0, 96.0, 21.0, 64.0, 0.0, 0.0, 0.0, 1.677538075723979E9, 0.0, 2023-02-27 14:47:55.723
49.0, 3891.9304480469764, 2188.8839827637653, 992.3280468378124, 2599.4631766633006, -5711.451853686793, -4913.494576632331, -1042.9547480290828, -765.6143028276329, 0.20800000000000002, -0.756, 0.68, 192.0, 0.0, 0.0, 0.0, 0.0, 0.0, 0.0, 0.0, 0.0, 0.0, 1.677538075723992E9, 0.0, 2023-02-27 14:47:55.723
50.0, 3891.1928404799514, 2185.084186206363, 990.9422386815833, 2604.2911534656473, -5713.150586265396, -4918.367256923587, -1043.982928274027, -766.4189656280239, 0.20800000000000002, -0.756, 0.68, 192.0, 0.0, 0.0, 0.0, 0.0, 0.0, 0.0, 0.0, 0.0, 0.0, 1.6775380757239993E9, 0.0, 2023-02-27 14:47:55.723
51.0, 3896.7584248493226, 2188.325189152383, 991.7469014819744, 2604.0229325321834, -5718.336190979027, -4937.7015158774275, -1044.5193701409544, -763.5132388488339, 0.20800000000000002, -0.756, 0.68, 192.0, 0.0, 0.0, 0.0, 0.0, 0.0, 0.0, 0.0, 0.0, 0.0, 1.677538075724006E9, 0.0, 2023-02-27 14:47:55.724
52.0, 3906.9955238098532, 2192.1026339653295, 992.8421369602844, 2597.026836517672, -5725.533452693636, -4953.638309674062, -1041.6136433617644, -765.5248958498116, 0.20800000000000002, -0.756, 0.68, 192.0, 0.0, 0.0, 0.0, 0.0, 0.0, 0.0, 0.0, 0.0, 0.0, 1.677538075724013E9, 0.0, 2023-02-27 14:47:55.724
53.0, 3895.238506226362, 2189.2639624195053, 993.8479654607733, 2596.8927260509404, -5728.886214361932, -4947.715097393406, -1041.1889602171136, -765.77076503882, 0.20800000000000002, -0.756, 0.68, 192.0, 0.0, 0.0, 0.0, 0.0, 0.0, 0.0, 0.0, 0.0, 0.0, 1.6775380757240202E9, 0.0, 2023-02-27 14:47:55.724
54.0, 3881.715700830901, 2183.2960466499385, 991.8139567153403, 2602.815938331597, -5723.722961392756, -4931.353620452121, -1044.6981840965968, -764.3402533936803, 0.20800000000000002, -0.756, 0.68, 192.0, 0.0, 0.0, 0.0, 0.0, 0.0, 0.0, 0.0, 0.0, 0.0, 1.6775380757240272E9, 0.0, 2023-02-27 14:47:55.724
55.0, 3882.00627350882, 2181.709072793612, 989.6011340142649, 2604.8275953325747, -5726.22635677175, -4925.49746340483, -1045.9275300416386, -765.0108057273395, 0.20800000000000002, -0.756, 0.68, 192.0, 0.0, 0.0, 0.0, 0.0, 0.0, 0.0, 0.0, 0.0, 0.0, 1.677538075724034E9, 0.0, 2023-02-27 14:47:55.724
56.0, 3885.783718321767, 2183.407805372215, 990.0258171589157, 2600.6031156305216, -5723.901775348399, -4916.310896433699, -1044.631128863231, -765.3684336386244, 0.20800000000000002, -0.756, 0.68, 192.0, 0.0, 0.0, 0.0, 0.0, 0.0, 0.0, 0.0, 0.0, 0.0, 1.6775380757240412E9, 0.0, 2023-02-27 14:47:55.724
57.0, 3891.5281166467807, 2185.7770902844777, 991.7692532264297, 2600.1784324858704, -5718.760874123678, -4904.620934083573, -1042.9100445401723, -764.6308260715994, 0.20800000000000002, -0.756, 0.68, 192.0, 0.0, 0.0, 0.0, 0.0, 0.0, 0.0, 0.0, 0.0, 0.0, 1.677538075724048E9, 0.0, 2023-02-27 14:47:55.724
58.0, 3896.780776593778, 2187.319360651894, 990.696369492575, 2601.60894413101, -5720.996048569209, -4911.34880916462, -1044.0723352518482, -762.350948137158, 0.202, -0.756, 0.678, 192.0, 6.0, 80.0, 232.0, 96.0, 21.0, 48.0, 0.0, 0.0, 0.0, 1.6775380757240553E9, 0.0, 2023-02-27 14:47:55.724
59.0, 3899.6641516285126, 2192.0132269875085, 992.8421369602844, 2605.386388943957, -5719.073798546052, -4918.479015645864, -1042.5524166288874, -758.2382271573815, 0.202, -0.756, 0.678, 192.0, 0.0, 0.0, 0.0, 0.0, 0.0, 0.0, 0.0, 0.0, 0.0, 1.6775380757240624E9, 0.0, 2023-02-27 14:47:55.724
60.0, 3903.0839685301744, 2195.857727033821, 994.7420352389855, 2600.3795981859685, -5722.13598753643, -4928.984335539858, -1040.9430910281053, -757.6123783126329, 0.202, -0.756, 0.678, 192.0, 0.0, 0.0, 0.0, 0.0, 0.0, 0.0, 0.0, 0.0, 0.0, 1.6775380757240696E9, 0.0, 2023-02-27 14:47:55.724
61.0, 3903.799224352744, 2195.9694857560976, 993.8256137163179, 2593.159984726904, -5726.628688171946, -4935.421637942986, -1042.01597476196, -759.9816632248954, 0.202, -0.756, 0.678, 192.0, 0.0, 0.0, 0.0, 0.0, 0.0, 0.0, 0.0, 0.0, 0.0, 1.6775380757240765E9, 0.0, 2023-02-27 14:47:55.724
62.0, 3901.139366762563, 2192.7731862989885, 992.5292125379101, 2597.2503539622253, -5722.359504980982, -4919.596602868629, -1043.4241346626443, -758.7970207687641, 0.202, -0.756, 0.678, 192.0, 0.0, 0.0, 0.0, 0.0, 0.0, 0.0, 0.0, 0.0, 0.0, 1.6775380757240837E9, 0.0, 2023-02-27 14:47:55.724
63.0, 3904.514480175314, 2193.24257293255, 991.2775148484129, 2602.1230342534823, -5722.963002081276, -4915.416826655487, -1044.5417218854097, -759.3111108912362, 0.202, -0.756, 0.678, 192.0, 0.0, 0.0, 0.0, 0.0, 0.0, 0.0, 0.0, 0.0, 0.0, 1.6775380757240906E9, 0.0, 2023-02-27 14:47:55.724
64.0, 3909.521270933303, 2196.2377066895615, 991.3892735706895, 2600.647819119432, -5721.756007880689, -4922.9046610480145, -1041.6359951062198, -761.993320225873, 0.202, -0.756, 0.678, 192.0, 0.0, 0.0, 0.0, 0.0, 0.0, 0.0, 0.0, 0.0, 0.0, 1.6775380757240987E9, 0.0, 2023-02-27 14:47:55.724
65.0, 3911.979962823387, 2196.707093323123, 992.886840449195, 2596.356284184013, -5718.783225868133, -4929.140797751045, -1036.7633148149628, -765.5025441053563, 0.202, -0.756, 0.678, 192.0, 0.0, 0.0, 0.0, 0.0, 0.0, 0.0, 0.0, 0.0, 0.0, 1.6775380757241292E9, 0.0, 2023-02-27 14:47:55.724
66.0, 3919.1772245379957, 2194.740139811056, 992.3951020711783, 2596.2445254617364, -5723.208871270284, -4936.852149588126, -1035.82454154784, -765.5695993387222, 0.202, -0.756, 0.678, 192.0, 0.0, 0.0, 0.0, 0.0, 0.0, 0.0, 0.0, 0.0, 0.0, 1.6775380757241364E9, 0.0, 2023-02-27 14:47:55.724
67.0, 3925.949803107954, 2196.2377066895615, 993.7362067384967, 2601.0501505196276, -5722.650077658901, -4943.8035421137265, -1034.3493264137896, -762.1050789481496, 0.202, -0.756, 0.678, 192.0, 0.0, 0.0, 0.0, 0.0, 0.0, 0.0, 0.0, 0.0, 0.0, 1.6775380757241433E9, 0.0, 2023-02-27 14:47:55.724
68.0, 3924.2510705293503, 2196.2824101784718, 993.177413127114, 2600.580763886066, -5721.42073171386, -4940.897815334537, -1033.5223118689432, -763.446183615468, 0.214, -0.756, 0.678, 192.0, 6.0, 176.0, 232.0, 96.0, 21.0, 48.0, 0.0, 0.0, 0.0, 1.6775380757241504E9, 0.0, 2023-02-27 14:47:55.724
69.0, 3921.7700268948115, 2196.7517968120333, 992.5292125379101, 2594.3446271830353, -5719.833757857533, -4934.684030375962, -1034.3940299027001, -766.9777592394065, 0.214, -0.756, 0.678, 192.0, 0.0, 0.0, 0.0, 0.0, 0.0, 0.0, 0.0, 0.0, 0.0, 1.677538075724158E9, 0.0, 2023-02-27 14:47:55.724
70.0, 3927.782646153289, 2198.4281776461817, 992.8644887047398, 2595.059883005605, -5714.022304299153, -4934.505216420319, -1031.6447653346975, -767.7153668064317, 0.214, -0.756, 0.678, 192.0, 0.0, 0.0, 0.0, 0.0, 0.0, 0.0, 0.0, 0.0, 0.0, 1.6775380757241647E9, 0.0, 2023-02-27 14:47:55.724
71.0, 3933.772913667311, 2198.8081573019217, 992.953895682561, 2599.7313975967645, -5713.329400221039, -4933.208815241911, -1029.4542943780773, -763.3120731487362, 0.214, -0.756, 0.678, 192.0, 0.0, 0.0, 0.0, 0.0, 0.0, 0.0, 0.0, 0.0, 0.0, 1.677538075724172E9, 0.0, 2023-02-27 14:47:55.724
72.0, 3938.4444282584705, 2203.0102852595196, 994.2055933720582, 2596.8256708175745, -5729.489711462225, -4943.244748502344, -1027.9343757551164, -761.3227678922138, 0.214, -0.756, 0.678, 192.0, 0.0, 0.0, 0.0, 0.0, 0.0, 0.0, 0.0, 0.0, 0.0, 1.677538075724179E9, 0.0, 2023-02-27 14:47:55.724
73.0, 3938.2209108139173, 2205.670142849701, 996.1278433952145, 2589.449595147323, -5744.666545947379, -4942.842417102149, -1025.3192216538455, -763.2673696598256, 0.214, -0.756, 0.678, 192.0, 0.0, 0.0, 0.0, 0.0, 0.0, 0.0, 0.0, 0.0, 0.0, 1.677538075724186E9, 0.0, 2023-02-27 14:47:55.724
74.0, 3928.9896403538755, 2199.366950913304, 993.0656544048375, 2589.583705614055, -5735.368220253971, -4930.571309396185, -1027.4426373770998, -765.2119714274373, 0.214, -0.756, 0.678, 192.0, 0.0, 0.0, 0.0, 0.0, 0.0, 0.0, 0.0, 0.0, 0.0, 1.677538075724193E9, 0.0, 2023-02-27 14:47:55.724
75.0, 3924.362829251627, 2192.259096176517, 991.3222183373235, 2599.3737696854796, -5699.784243081122, -4913.963963265892, -1030.1919019451025, -763.0662039597278, 0.214, -0.756, 0.678, 192.0, 0.0, 0.0, 0.0, 0.0, 0.0, 0.0, 0.0, 0.0, 0.0, 1.6775380757242E9, 0.0, 2023-02-27 14:47:55.724
76.0, 3922.261765272828, 2191.3650263983045, 990.3163898368347, 2600.9830952862617, -5694.598638367491, -4921.407094169509, -1031.9353380126165, -762.2838929037921, 0.214, -0.756, 0.678, 192.0, 0.0, 0.0, 0.0, 0.0, 0.0, 0.0, 0.0, 0.0, 0.0, 1.677538075724207E9, 0.0, 2023-02-27 14:47:55.724
77.0, 3924.4745879739035, 2193.3990351437374, 990.5399072813877, 2593.9199440383845, -5701.661789615368, -4930.705419862917, -1032.628242090731, -764.6308260715994, 0.214, -0.756, 0.678, 192.0, 0.0, 0.0, 0.0, 0.0, 0.0, 0.0, 0.0, 0.0, 0.0, 1.677538075724214E9, 0.0, 2023-02-27 14:47:55.724
78.0, 3932.9011956335544, 2195.5224508669917, 992.082177648804, 2589.6060573585105, -5705.327475706038, -4939.489655433852, -1029.655460078175, -765.0108057273395, 0.214, -0.756, 0.678, 192.0, 0.0, 0.0, 0.0, 0.0, 0.0, 0.0, 0.0, 0.0, 0.0, 1.6775380757242208E9, 0.0, 2023-02-27 14:47:55.724
79.0, 3938.578538725202, 2197.4894043790587, 994.272648605424, 2593.6964265938313, -5706.869746073455, -4940.942518823447, -1027.2191199325466, -761.5686370812223, 0.212, -0.75, 0.678, 192.0, 6.0, 160.0, 232.0, 144.0, 21.0, 48.0, 0.0, 0.0, 0.0, 1.677538075724228E9, 0.0, 2023-02-27 14:47:55.724
80.0, 3933.1470648225627, 2197.310590423416, 993.6467997606754, 2595.059883005605, -5715.139891521918, -4928.827873328671, -1029.8119222893622, -760.4510498584569, 0.212, -0.75, 0.678, 192.0, 0.0, 0.0, 0.0, 0.0, 0.0, 0.0, 0.0, 0.0, 0.0, 1.6775380757242353E9, 0.0, 2023-02-27 14:47:55.724
81.0, 3937.5280067358026, 2199.8139858024106, 995.9490294395721, 2590.9918655147394, -5719.342019479516, -4922.278812203266, -1029.6107565892646, -758.3723376241134, 0.212, -0.75, 0.678, 192.0, 0.0, 0.0, 0.0, 0.0, 0.0, 0.0, 0.0, 0.0, 0.0, 1.6775380757242475E9, 0.0, 2023-02-27 14:47:55.724
82.0, 3941.528968993303, 2201.289200936461, 995.9937329284827, 2585.4486328898233, -5716.995086311708, -4929.5431291512405, -1027.889672266206, -759.1993521689596, 0.212, -0.75, 0.678, 192.0, 0.0, 0.0, 0.0, 0.0, 0.0, 0.0, 0.0, 0.0, 0.0, 1.6775380757242544E9, 0.0, 2023-02-27 14:47:55.724
83.0, 3938.6902974474788, 2203.05498874843, 998.4747765630218, 2592.2659149486917, -5701.4829756597255, -4917.83081505666, -1026.1909396876026, -753.7455265218648, 0.212, -0.75, 0.678, 192.0, 0.0, 0.0, 0.0, 0.0, 0.0, 0.0, 0.0, 0.0, 0.0, 1.677538075724262E9, 0.0, 2023-02-27 14:47:55.724
84.0, 3936.6339369575903, 2204.4855003935695, 998.6759422631195, 2594.1211097384826, -5713.932897321331, -4925.49746340483, -1027.1073612102703, -751.8232764987083, 0.212, -0.75, 0.678, 192.0, 0.0, 0.0, 0.0, 0.0, 0.0, 0.0, 0.0, 0.0, 0.0, 1.677538075724269E9, 0.0, 2023-02-27 14:47:55.724
85.0, 3937.840931158177, 2207.3241719393936, 998.8994597076726, 2590.0083887587057, -5713.776435110144, -4925.408056427009, -1025.922718754139, -754.5278375778005, 0.212, -0.75, 0.678, 192.0, 0.0, 0.0, 0.0, 0.0, 0.0, 0.0, 0.0, 0.0, 0.0, 1.677538075724276E9, 0.0, 2023-02-27 14:47:55.724
86.0, 3932.7000299334563, 2205.379570171782, 997.692465507086, 2585.649798589921, -5700.186574481318, -4917.652001101017, -1028.560224599865, -756.6065498121441, 0.212, -0.75, 0.678, 192.0, 0.0, 0.0, 0.0, 0.0, 0.0, 0.0, 0.0, 0.0, 0.0, 1.6775380757242837E9, 0.0, 2023-02-27 14:47:55.724
87.0, 3935.1140183346297, 2205.7371980830667, 998.2959626073794, 2587.6391038464435, -5698.957228536276, -4923.105826748112, -1028.3143554108567, -755.7795352672977, 0.212, -0.75, 0.678, 192.0, 0.0, 0.0, 0.0, 0.0, 0.0, 0.0, 0.0, 0.0, 0.0, 1.6775380757242906E9, 0.0, 2023-02-27 14:47:55.724
88.0, 3933.2588235448393, 2205.4689771496032, 997.6254102737201, 2590.2989614366247, -5711.027170542142, -4926.816216327693, -1027.6885065661081, -755.9136457340295, 0.212, -0.75, 0.678, 192.0, 0.0, 0.0, 0.0, 0.0, 0.0, 0.0, 0.0, 0.0, 0.0, 1.6775380757242975E9, 0.0, 2023-02-27 14:47:55.724
89.0, 3931.11305607713, 2207.212413217117, 997.3795410847117, 2587.169717212882, -5709.3507897079935, -4927.576175639174, -1028.6049280887758, -757.2994538902586, 0.216, -0.754, 0.68, 192.0, 6.0, 192.0, 232.0, 112.0, 21.0, 64.0, 0.0, 0.0, 0.0, 1.6775380757243047E9, 0.0, 2023-02-27 14:47:55.724
90.0, 3933.6388032005793, 2209.313477195916, 997.692465507086, 2581.8276502880635, -5708.188498996317, -4930.347791951632, -1028.4708176220438, -761.7250992924094, 0.216, -0.754, 0.68, 192.0, 0.0, 0.0, 0.0, 0.0, 0.0, 0.0, 0.0, 0.0, 0.0, 1.677538075724312E9, 0.0, 2023-02-27 14:47:55.724
91.0, 3935.6057567126463, 2208.9111457957206, 997.2454306179799, 2583.7946038001305, -5710.803653097589, -4932.135931508056, -1027.6885065661081, -762.060375459239, 0.216, -0.754, 0.68, 192.0, 0.0, 0.0, 0.0, 0.0, 0.0, 0.0, 0.0, 0.0, 0.0, 1.6775380757243192E9, 0.0, 2023-02-27 14:47:55.724
92.0, 3936.4104195130376, 2207.882965550776, 996.6419335176867, 2589.6954643363315, -5710.51308041967, -4924.759855837805, -1028.53787285541, -761.3898231255798, 0.216, -0.754, 0.68, 192.0, 0.0, 0.0, 0.0, 0.0, 0.0, 0.0, 0.0, 0.0, 0.0, 1.6775380757243264E9, 0.0, 2023-02-27 14:47:55.724
93.0, 3934.06348634523, 2209.157014984729, 995.3455323392789, 2590.9471620258287, -5709.7978245971, -4923.664620359495, -1029.7672188004517, -764.3626051381357, 0.216, -0.754, 0.68, 192.0, 0.0, 0.0, 0.0, 0.0, 0.0, 0.0, 0.0, 0.0, 0.0, 1.6775380757243335E9, 0.0, 2023-02-27 14:47:55.724
94.0, 3930.2413380433727, 2206.3630469278155, 995.1667183836364, 2585.8062608011082, -5713.888193832421, -4927.464416916897, -1029.8342740338176, -766.2848551612921, 0.216, -0.754, 0.68, 192.0, 0.0, 0.0, 0.0, 0.0, 0.0, 0.0, 0.0, 0.0, 0.0, 1.6775380757243404E9, 0.0, 2023-02-27 14:47:55.724
95.0, 3925.1004368186523, 2202.1162154813073, 994.0044276719603, 2586.521516623678, -5716.413940955871, -4927.911451806003, -1031.0859717233147, -765.9048755055518, 0.216, -0.754, 0.68, 192.0, 0.0, 0.0, 0.0, 0.0, 0.0, 0.0, 0.0, 0.0, 0.0, 1.6775380757243483E9, 0.0, 2023-02-27 14:47:55.724
96.0, 3923.8040356402444, 2199.5457648689467, 994.1161863942369, 2592.422377159879, -5712.077702531541, -4926.480940160864, -1031.8906345237058, -762.574465581711, 0.216, -0.754, 0.68, 192.0, 0.0, 0.0, 0.0, 0.0, 0.0, 0.0, 0.0, 0.0, 0.0, 1.6775380757243557E9, 0.0, 2023-02-27 14:47:55.724
97.0, 3921.367695494616, 2199.43400614667, 994.853793961262, 2593.9869992717504, -5708.680237374335, -4925.83273957166, -1032.7176490685522, -760.0934219471719, 0.216, -0.754, 0.68, 192.0, 0.0, 0.0, 0.0, 0.0, 0.0, 0.0, 0.0, 0.0, 0.0, 1.6775380757243712E9, 0.0, 2023-02-27 14:47:55.724
98.0, 3924.4298844849927, 2201.1774422141843, 995.1667183836364, 2588.533173624656, -5710.043693786108, -4924.4916349043415, -1031.2647856789572, -762.9544452374513, 0.216, -0.754, 0.68, 192.0, 0.0, 0.0, 0.0, 0.0, 0.0, 0.0, 0.0, 0.0, 0.0, 1.677538075724378E9, 0.0, 2023-02-27 14:47:55.724
99.0, 3922.351172250649, 2197.668218334701, 993.1103578937481, 2586.7897375571415, -5711.250687986695, -4921.854129058615, -1032.2035589460802, -764.2284946714037, 0.20800000000000002, -0.752, 0.676, 192.0, 6.0, 128.0, 232.0, 128.0, 21.0, 32.0, 0.0, 0.0, 0.0, 1.6775380757243853E9, 0.0, 2023-02-27 14:47:55.724
100.0, 3922.999372839853, 2196.349465411838, 992.2609916044464, 2590.880106792463, -5706.735635606723, -4925.11748374909, -1033.790532802407, -764.0943842046719, 0.20800000000000002, -0.752, 0.676, 192.0, 0.0, 0.0, 0.0, 0.0, 0.0, 0.0, 0.0, 0.0, 0.0, 1.6775380757243927E9, 0.0, 2023-02-27 14:47:55.724
101.0, 3926.4638932304256, 2198.763453813011, 993.3785788272118, 2592.645894604432, -5707.450891429293, -4929.274908217777, -1033.1199804687478, -762.0156719703284, 0.20800000000000002, -0.752, 0.676, 192.0, 0.0, 0.0, 0.0, 0.0, 0.0, 0.0, 0.0, 0.0, 0.0, 1.6775380757243998E9, 0.0, 2023-02-27 14:47:55.724
102.0, 3924.876919374099, 2197.8470322903436, 992.9091921936504, 2587.460289890801, -5704.612219883468, -4926.235070971856, -1033.6340705912198, -763.4908871043787, 0.20800000000000002, -0.752, 0.676, 192.0, 0.0, 0.0, 0.0, 0.0, 0.0, 0.0, 0.0, 0.0, 0.0, 1.6775380757244067E9, 0.0, 2023-02-27 14:47:55.724
103.0, 3926.7097624194344, 2195.857727033821, 993.0656544048375, 2585.873316034474, -5702.779376838133, -4922.636440114551, -1033.0976287242925, -764.9884539828843, 0.20800000000000002, -0.752, 0.676, 192.0, 0.0, 0.0, 0.0, 0.0, 0.0, 0.0, 0.0, 0.0, 0.0, 1.6775380757244139E9, 0.0, 2023-02-27 14:47:55.724
104.0, 3927.6708874310125, 2189.599238586335, 994.5855730277983, 2588.108490480005, -5710.021342041653, -4943.848245602638, -1030.7730473009406, -762.3062446482473, 0.20800000000000002, -0.752, 0.676, 192.0, 0.0, 0.0, 0.0, 0.0, 0.0, 0.0, 0.0, 0.0, 0.0, 1.6775380757244208E9, 0.0, 2023-02-27 14:47:55.724
105.0, 3921.1888815389734, 2156.608063770302, 992.2609916044464, 2586.7226823237756, -5722.918298592365, -4932.247690230333, -1032.5164833684544, -763.7591080378423, 0.20800000000000002, -0.752, 0.676, 192.0, 0.0, 0.0, 0.0, 0.0, 0.0, 0.0, 0.0, 0.0, 0.0, 1.6775380757244277E9, 0.0, 2023-02-27 14:47:55.724
106.0, 3918.2831547597834, 2162.3748138397714, 991.2775148484129, 2586.007426501206, -5727.008667827687, -4880.078718671646, -1035.690431081108, -766.0389859722836, 0.20800000000000002, -0.752, 0.676, 192.0, 0.0, 0.0, 0.0, 0.0, 0.0, 0.0, 0.0, 0.0, 0.0, 1.6775380757244349E9, 0.0, 2023-02-27 14:47:55.724
107.0, 3911.7564453788336, 2174.578866312369, 990.8081282148514, 2585.8062608011082, -5721.4430834583145, -4879.855201227093, -1038.953785771583, -765.5695993387222, 0.20800000000000002, -0.752, 0.676, 192.0, 0.0, 0.0, 0.0, 0.0, 0.0, 0.0, 0.0, 0.0, 0.0, 1.6775380757244425E9, 0.0, 2023-02-27 14:47:55.724
108.0, 3914.6845239024788, 2174.511811079003, 989.7352444809967, 2590.835403303552, -5703.695798360801, -4888.840602498127, -1039.7137450830633, -763.803811526753, 0.20800000000000002, -0.752, 0.676, 192.0, 0.0, 0.0, 0.0, 0.0, 0.0, 0.0, 0.0, 0.0, 0.0, 1.6775380757244496E9, 0.0, 2023-02-27 14:47:55.724
109.0, 3917.67965765949, 2175.4505843461257, 989.2882095918906, 2594.8810690499627, -5693.548106378092, -4886.359558863587, -1040.049021249893, -762.7085760484429, 0.212, -0.748, 0.68, 192.0, 6.0, 160.0, 232.0, 160.0, 21.0, 64.0, 0.0, 0.0, 0.0, 1.6775380757244568E9, 0.0, 2023-02-27 14:47:55.724
110.0, 3915.6680006585125, 2180.3679681262934, 990.5399072813877, 2591.774176570675, -5697.325551191038, -4891.947494977414, -1039.3784689162337, -764.899047005063, 0.212, -0.748, 0.68, 192.0, 0.0, 0.0, 0.0, 0.0, 0.0, 0.0, 0.0, 0.0, 0.0, 1.677538075724464E9, 0.0, 2023-02-27 14:47:55.724
111.0, 3906.7720063653, 2179.540953581447, 991.0316456594045, 2586.4097579014015, -5705.171013494852, -4903.995085238825, -1040.116076483259, -767.4247941285126, 0.212, -0.748, 0.68, 192.0, 0.0, 0.0, 0.0, 0.0, 0.0, 0.0, 0.0, 0.0, 0.0, 1.6775380757244709E9, 0.0, 2023-02-27 14:47:55.724
112.0, 3909.9906575668647, 2181.0161687154973, 991.6351427596978, 2587.616752101988, -5706.378007695438, -4922.882309303559, -1039.8255038053398, -763.8932185045742, 0.212, -0.748, 0.68, 192.0, 0.0, 0.0, 0.0, 0.0, 0.0, 0.0, 0.0, 0.0, 0.0, 1.677538075724478E9, 0.0, 2023-02-27 14:47:55.724
113.0, 3919.445445471459, 2185.419462373193, 993.4456340605777, 2591.0812724925604, -5712.860013587477, -4928.045562272735, -1038.3949921602002, -758.7076137909429, 0.212, -0.748, 0.68, 192.0, 0.0, 0.0, 0.0, 0.0, 0.0, 0.0, 0.0, 0.0, 0.0, 1.6775380757244935E9, 0.0, 2023-02-27 14:47:55.724
114.0, 3925.7709891523114, 2187.2970089074383, 994.9432009390832, 2588.577877113566, -5720.772531124656, -4919.730713335361, -1035.757486314474, -760.0934219471719, 0.212, -0.748, 0.68, 192.0, 0.0, 0.0, 0.0, 0.0, 0.0, 0.0, 0.0, 0.0, 0.0, 1.6775380757245016E9, 0.0, 2023-02-27 14:47:55.724
115.0, 3923.424055984504, 2186.8499740183324, 994.6749800056195, 2583.906362522407, -5726.472225960759, -4904.911506761492, -1035.9363002701164, -764.2508464158591, 0.212, -0.748, 0.68, 192.0, 0.0, 0.0, 0.0, 0.0, 0.0, 0.0, 0.0, 0.0, 0.0, 1.6775380757245083E9, 0.0, 2023-02-27 14:47:55.724
116.0, 3931.11305607713, 2188.4369478746594, 994.6302765167089, 2587.3485311685245, -5722.18069102534, -4901.894021260026, -1035.4445618920997, -763.7814597822976, 0.212, -0.748, 0.68, 192.0, 0.0, 0.0, 0.0, 0.0, 0.0, 0.0, 0.0, 0.0, 0.0, 1.6775380757245157E9, 0.0, 2023-02-27 14:47:55.724
117.0, 3939.3384980366827, 2189.9121630087093, 993.6244480162202, 2591.5953626150326, -5724.192348026318, -4909.560669608196, -1035.8021898033846, -763.8932185045742, 0.212, -0.748, 0.68, 192.0, 0.0, 0.0, 0.0, 0.0, 0.0, 0.0, 0.0, 0.0, 0.0, 1.6775380757245226E9, 0.0, 2023-02-27 14:47:55.724
118.0, 3938.06444860273, 2192.259096176517, 994.272648605424, 2591.684769592854, -5723.544147437114, -4916.310896433699, -1036.9421287706052, -764.7425847938758, 0.212, -0.748, 0.68, 192.0, 0.0, 0.0, 0.0, 0.0, 0.0, 0.0, 0.0, 0.0, 0.0, 1.6775380757245295E9, 0.0, 2023-02-27 14:47:55.724
119.0, 3937.7962276692665, 2196.215354945106, 996.1501951396699, 2585.60509510101, -5721.308972991583, -4923.418751170487, -1036.3162799258566, -763.5802940821999, 0.20600000000000002, -0.748, 0.682, 192.0, 6.0, 112.0, 232.0, 160.0, 21.0, 80.0, 0.0, 0.0, 0.0, 1.6775380757245376E9, 0.0, 2023-02-27 14:47:55.724
120.0, 3941.4395620154814, 2197.5341078679694, 996.2396021174911, 2586.4097579014015, -5728.640345172924, -4929.45372217342, -1033.790532802407, -761.1663056810268, 0.20600000000000002, -0.748, 0.682, 192.0, 0.0, 0.0, 0.0, 0.0, 0.0, 0.0, 0.0, 0.0, 0.0, 1.6775380757245452E9, 0.0, 2023-02-27 14:47:55.724
121.0, 3942.579500982702, 2198.763453813011, 996.597230028776, 2594.009351016206, -5719.900813090899, -4928.984335539858, -1032.628242090731, -758.1935236684709, 0.20600000000000002, -0.748, 0.682, 192.0, 0.0, 0.0, 0.0, 0.0, 0.0, 0.0, 0.0, 0.0, 0.0, 1.677538075724552E9, 0.0, 2023-02-27 14:47:55.724
122.0, 3942.3112800492386, 2200.2610206915165, 995.5914015282872, 2596.780967328664, -5713.239993243217, -4925.363352938099, -1033.7011258245857, -758.5958550686664, 0.20600000000000002, -0.748, 0.682, 192.0, 0.0, 0.0, 0.0, 0.0, 0.0, 0.0, 0.0, 0.0, 0.0, 1.6775380762040384E9, 0.0, 2023-02-27 14:47:56.204
123.0, 3941.774838182311, 2201.0656834919077, 995.9713811840275, 2592.2659149486917, -5710.714246119767, -4922.92701279247, -1033.2540909354796, -761.3451196366692, 0.20600000000000002, -0.748, 0.682, 192.0, 0.0, 0.0, 0.0, 0.0, 0.0, 0.0, 0.0, 0.0, 0.0, 1.6775380762040691E9, 0.0, 2023-02-27 14:47:56.204
124.0, 3944.5017510058588, 2201.289200936461, 996.2843056064017, 2590.477775392267, -5715.6316298999345, -4929.185501239956, -1032.9635182575605, -761.6580440590435, 0.20600000000000002, -0.748, 0.682, 192.0, 0.0, 0.0, 0.0, 0.0, 0.0, 0.0, 0.0, 0.0, 0.0, 1.6775380762040908E9, 0.0, 2023-02-27 14:47:56.204
125.0, 3945.3064138062496, 2199.6128201023125, 995.3455323392789, 2592.9811707712615, -5723.387685225926, -4934.974603053881, -1035.4222101476444, -759.6463870580658, 0.20600000000000002, -0.748, 0.682, 192.0, 0.0, 0.0, 0.0, 0.0, 0.0, 0.0, 0.0, 0.0, 0.0, 1.6775380762041078E9, 0.0, 2023-02-27 14:47:56.204
126.0, 3944.0547161167524, 2199.7692823135, 994.920849194628, 2595.4398626613456, -5719.073798546052, -4929.3643151955985, -1037.0315357484264, -757.7464887793648, 0.20600000000000002, -0.748, 0.682, 192.0, 0.0, 0.0, 0.0, 0.0, 0.0, 0.0, 0.0, 0.0, 0.0, 1.6775380762041247E9, 0.0, 2023-02-27 14:47:56.204
127.0, 3940.813713170733, 2201.8479945478434, 996.0607881618487, 2590.880106792463, -5720.951345080298, -4920.065989502191, -1035.981003759027, -757.8805992460966, 0.20600000000000002, -0.748, 0.682, 192.0, 0.0, 0.0, 0.0, 0.0, 0.0, 0.0, 0.0, 0.0, 0.0, 1.6775380762041452E9, 0.0, 2023-02-27 14:47:56.204
128.0, 3943.1159428496294, 2199.9033927802316, 995.2561253614576, 2587.5720486130776, -5724.214699770773, -4926.033905271757, -1036.7633148149628, -759.7134422914318, 0.20600000000000002, -0.748, 0.682, 192.0, 0.0, 0.0, 0.0, 0.0, 0.0, 0.0, 0.0, 0.0, 0.0, 1.6775380762041728E9, 0.0, 2023-02-27 14:47:56.204
129.0, 3951.0508121312637, 2199.366950913304, 996.8430992177844, 2591.3718451704794, -5725.980487582742, -4938.796751355738, -1033.7011258245857, -757.7911922682754, 0.214, -0.754, 0.68, 192.0, 6.0, 176.0, 232.0, 112.0, 21.0, 64.0, 0.0, 0.0, 0.0, 1.677538076204298E9, 0.0, 2023-02-27 14:47:56.204
130.0, 3950.5367220087915, 2201.311552680916, 997.8489277182732, 2592.6682463488874, -5732.104865563496, -4958.041603331757, -1031.6671170791528, -754.9748724669066, 0.214, -0.754, 0.68, 192.0, 0.0, 0.0, 0.0, 0.0, 0.0, 0.0, 0.0, 0.0, 0.0, 1.677538076204309E9, 0.0, 2023-02-27 14:47:56.204
131.0, 3951.1178673646295, 2206.7430265835555, 999.3911980856894, 2587.460289890801, -5735.32351676506, -4964.858885390626, -1028.7390385555075, -757.5676748237223, 0.214, -0.754, 0.68, 192.0, 0.0, 0.0, 0.0, 0.0, 0.0, 0.0, 0.0, 0.0, 0.0, 1.6775380762043161E9, 0.0, 2023-02-27 14:47:56.204
132.0, 3953.710669721445, 2206.0948259943516, 998.4524248185664, 2583.995769500228, -5741.112618578985, -4938.483826933364, -1029.6107565892646, -759.0652417022278, 0.214, -0.754, 0.68, 192.0, 0.0, 0.0, 0.0, 0.0, 0.0, 0.0, 0.0, 0.0, 0.0, 1.6775380762043233E9, 0.0, 2023-02-27 14:47:56.204
133.0, 3951.6990127204676, 2201.4903666365585, 995.0102561724492, 2588.9578567693065, -5731.881348118943, -4929.006687284314, -1032.8517595352841, -758.9758347244066, 0.214, -0.754, 0.68, 192.0, 0.0, 0.0, 0.0, 0.0, 0.0, 0.0, 0.0, 0.0, 0.0, 1.6775380762043307E9, 0.0, 2023-02-27 14:47:56.204
134.0, 3949.7991144417665, 2203.859651548821, 997.0219131734268, 2594.9928277722393, -5735.99406909872, -4937.857978088615, -1031.622413590242, -754.0808026886943, 0.214, -0.754, 0.68, 192.0, 0.0, 0.0, 0.0, 0.0, 0.0, 0.0, 0.0, 0.0, 0.0, 1.6775380762043376E9, 0.0, 2023-02-27 14:47:56.204
135.0, 3946.848684173666, 2203.211450959617, 996.7536922399631, 2589.851926547519, -5744.577138969557, -4927.263251216799, -1034.9528235140829, -754.5054858333452, 0.214, -0.754, 0.68, 192.0, 0.0, 0.0, 0.0, 0.0, 0.0, 0.0, 0.0, 0.0, 0.0, 1.6775380762043447E9, 0.0, 2023-02-27 14:47:56.204
136.0, 3945.328765550705, 2199.9480962691423, 996.2619538619464, 2585.850964290019, -5741.380839512449, -4913.82985279916, -1036.8974252816947, -756.8300672566971, 0.214, -0.754, 0.68, 192.0, 0.0, 0.0, 0.0, 0.0, 0.0, 0.0, 0.0, 0.0, 0.0, 1.6775380762043517E9, 0.0, 2023-02-27 14:47:56.204
137.0, 3942.870073660621, 2196.8859072787654, 996.4854713064994, 2590.3436649255354, -5731.0096300851865, -4911.214698697889, -1035.3328031698231, -755.9807009673955, 0.214, -0.754, 0.68, 192.0, 0.0, 0.0, 0.0, 0.0, 0.0, 0.0, 0.0, 0.0, 0.0, 1.6775380762043586E9, 0.0, 2023-02-27 14:47:56.204
138.0, 3944.2782335613056, 2197.0423694899523, 997.0666166623374, 2594.9034207944183, -5728.506234706192, -4921.518852891785, -1034.4163816471555, -755.6454248005658, 0.214, -0.754, 0.68, 192.0, 0.0, 0.0, 0.0, 0.0, 0.0, 0.0, 0.0, 0.0, 0.0, 1.6775380762043655E9, 0.0, 2023-02-27 14:47:56.204
139.0, 3943.9876608833865, 2199.1657852132066, 997.7371689959966, 2591.6400661039434, -5732.618955685968, -4939.243786244844, -1034.4387333916109, -757.6123783126329, 0.212, -0.754, 0.676, 192.0, 6.0, 160.0, 232.0, 112.0, 21.0, 32.0, 0.0, 0.0, 0.0, 1.6775380762043724E9, 0.0, 2023-02-27 14:47:56.204
140.0, 3943.942957394476, 2198.5846398573685, 997.6254102737201, 2584.6663218338877, -5734.0047638421975, -4938.081495533168, -1033.6787740801303, -762.6191690706216, 0.212, -0.754, 0.676, 192.0, 0.0, 0.0, 0.0, 0.0, 0.0, 0.0, 0.0, 0.0, 0.0, 1.67753807620438E9, 0.0, 2023-02-27 14:47:56.204
141.0, 3941.6854312044898, 2195.8800787782766, 997.178375384614, 2585.292170678636, -5739.100961578008, -4930.995992540836, -1034.6622508361638, -762.9991487263619, 0.212, -0.754, 0.676, 192.0, 0.0, 0.0, 0.0, 0.0, 0.0, 0.0, 0.0, 0.0, 0.0, 1.6775380762043872E9, 0.0, 2023-02-27 14:47:56.204
142.0, 3940.25491955935, 2195.8130235449107, 998.4747765630218, 2588.913153280396, -5740.218548800773, -4942.2165682574, -1034.4610851360662, -760.3392911361803, 0.212, -0.754, 0.676, 192.0, 0.0, 0.0, 0.0, 0.0, 0.0, 0.0, 0.0, 0.0, 0.0, 1.677538076204394E9, 0.0, 2023-02-27 14:47:56.204
143.0, 3941.3501550376604, 2196.2377066895615, 998.4524248185664, 2587.683807335354, -5729.713228906779, -4938.282661233266, -1035.533968869921, -760.2051806694485, 0.212, -0.754, 0.676, 192.0, 0.0, 0.0, 0.0, 0.0, 0.0, 0.0, 0.0, 0.0, 0.0, 1.6775380762044013E9, 0.0, 2023-02-27 14:47:56.204
144.0, 3944.144123094574, 2196.572982856391, 998.6535905186643, 2581.7605950546977, -5736.821083643566, -4933.097056519635, -1036.1374659702142, -760.4957533473676, 0.212, -0.754, 0.676, 192.0, 0.0, 0.0, 0.0, 0.0, 0.0, 0.0, 0.0, 0.0, 0.0, 1.677538076204408E9, 0.0, 2023-02-27 14:47:56.204
145.0, 3946.759277195845, 2197.377645656782, 998.0947969072815, 2578.6089990864994, -5756.267101319683, -4936.650983888028, -1034.6622508361638, -759.1099451911384, 0.212, -0.754, 0.676, 192.0, 0.0, 0.0, 0.0, 0.0, 0.0, 0.0, 0.0, 0.0, 0.0, 1.677538076204422E9, 0.0, 2023-02-27 14:47:56.204
146.0, 3947.6980504629673, 2197.1988317011396, 998.3853695852006, 2584.196935200326, -5753.696650707323, -4933.834664086659, -1032.2482624349907, -758.3052823907474, 0.212, -0.754, 0.676, 192.0, 0.0, 0.0, 0.0, 0.0, 0.0, 0.0, 0.0, 0.0, 0.0, 1.677538076204429E9, 0.0, 2023-02-27 14:47:56.204
147.0, 3944.837027172688, 2196.707093323123, 998.4300730741112, 2586.946199768329, -5732.462493474781, -4940.78605661226, -1033.142332213203, -758.5958550686664, 0.212, -0.754, 0.676, 192.0, 0.0, 0.0, 0.0, 0.0, 0.0, 0.0, 0.0, 0.0, 0.0, 1.677538076204436E9, 0.0, 2023-02-27 14:47:56.204
148.0, 3945.6193382286237, 2199.6128201023125, 999.2570876189576, 2579.681882820354, -5743.347793024515, -4940.562539167708, -1032.1588554571695, -759.5569800802446, 0.212, -0.754, 0.676, 192.0, 0.0, 0.0, 0.0, 0.0, 0.0, 0.0, 0.0, 0.0, 0.0, 1.6775380762044427E9, 0.0, 2023-02-27 14:47:56.204
149.0, 3944.0100126278417, 2197.2658869345055, 997.8265759738179, 2580.039510731639, -5738.788037155633, -4933.678201875473, -1032.8070560463734, -761.3898231255798, 0.20800000000000002, -0.76, 0.67, 192.0, 6.0, 128.0, 232.0, 64.0, 20.0, 240.0, 0.0, 0.0, 0.0, 1.67753807620445E9, 0.0, 2023-02-27 14:47:56.204
150.0, 3944.769971939322, 2195.0083607445195, 997.3795410847117, 2586.7450340682312, -5712.882365331932, -4960.857923133126, -1032.0247449904377, -762.2168376704261, 0.20800000000000002, -0.76, 0.67, 192.0, 0.0, 0.0, 0.0, 0.0, 0.0, 0.0, 0.0, 0.0, 0.0, 1.6775380762044594E9, 0.0, 2023-02-27 14:47:56.204
151.0, 3949.642652230579, 2197.467052634603, 998.0947969072815, 2586.8344410460522, -5709.104920518986, -4976.146516340556, -1030.7953990453957, -761.3674713811245, 0.20800000000000002, -0.76, 0.67, 192.0, 0.0, 0.0, 0.0, 0.0, 0.0, 0.0, 0.0, 0.0, 0.0, 1.6775380762044663E9, 0.0, 2023-02-27 14:47:56.204
152.0, 3947.228663829406, 2196.1930032006508, 997.8042242293626, 2582.2746851771694, -5719.252612501695, -4935.4663414318975, -1030.7506955564852, -763.5802940821999, 0.20800000000000002, -0.76, 0.67, 192.0, 0.0, 0.0, 0.0, 0.0, 0.0, 0.0, 0.0, 0.0, 0.0, 1.6775380762044733E9, 0.0, 2023-02-27 14:47:56.204
153.0, 3945.820503928722, 2193.3766833992822, 997.4018928291671, 2581.715891565787, -5723.454740459292, -4913.360466165598, -1032.561186857365, -762.5968173261664, 0.20800000000000002, -0.76, 0.67, 192.0, 0.0, 0.0, 0.0, 0.0, 0.0, 0.0, 0.0, 0.0, 0.0, 1.6775380762044804E9, 0.0, 2023-02-27 14:47:56.204
154.0, 3946.40164928456, 2192.4379101321592, 997.3571893402565, 2585.0463014896277, -5725.734618393733, -4926.793864583238, -1032.9635182575605, -760.5628085807334, 0.20800000000000002, -0.76, 0.67, 192.0, 0.0, 0.0, 0.0, 0.0, 0.0, 0.0, 0.0, 0.0, 0.0, 1.6775380762044885E9, 0.0, 2023-02-27 14:47:56.204
155.0, 3945.842855673177, 2193.3319799103715, 996.8207474733291, 2586.9909032572396, -5729.579118440047, -4935.131065265067, -1033.0305734909266, -760.4286981140016, 0.20800000000000002, -0.76, 0.67, 192.0, 0.0, 0.0, 0.0, 0.0, 0.0, 0.0, 0.0, 0.0, 0.0, 1.6775380762044952E9, 0.0, 2023-02-27 14:47:56.204
156.0, 3952.7718964543224, 2196.9976660010416, 998.3183143518346, 2584.1075282225047, -5730.920223107365, -4943.937652580458, -1031.5553583568762, -762.0380237147837, 0.20800000000000002, -0.76, 0.67, 192.0, 0.0, 0.0, 0.0, 0.0, 0.0, 0.0, 0.0, 0.0, 0.0, 1.6775380762045023E9, 0.0, 2023-02-27 14:47:56.204
157.0, 3954.1577046105513, 2196.125947967285, 996.7983957288737, 2580.3077316651024, -5732.864824874977, -4947.513931693307, -1033.7011258245857, -764.5861225826887, 0.20800000000000002, -0.76, 0.67, 192.0, 0.0, 0.0, 0.0, 0.0, 0.0, 0.0, 0.0, 0.0, 0.0, 1.6775380762045095E9, 0.0, 2023-02-27 14:47:56.204
158.0, 3947.9439196519756, 2193.57784909938, 996.1054916507593, 2586.1862404568483, -5729.556766695591, -4932.493559419341, -1035.3104514253678, -762.1050789481496, 0.20800000000000002, -0.76, 0.67, 192.0, 0.0, 0.0, 0.0, 0.0, 0.0, 0.0, 0.0, 0.0, 0.0, 1.6775380762045164E9, 0.0, 2023-02-27 14:47:56.204
159.0, 3950.648480731068, 2193.3990351437374, 995.7702154839296, 2591.03656900365, -5730.696705662812, -4926.682105860961, -1034.4163816471555, -759.6687388025211, 0.216, -0.76, 0.678, 192.0, 6.0, 192.0, 232.0, 64.0, 21.0, 48.0, 0.0, 0.0, 0.0, 1.6775380762045233E9, 0.0, 2023-02-27 14:47:56.204
160.0, 3950.7825911978, 2193.6896078216564, 994.8761457057174, 2586.297999179125, -5736.41875224337, -4936.74039086585, -1034.371678158245, -762.3285963927027, 0.216, -0.76, 0.678, 192.0, 0.0, 0.0, 0.0, 0.0, 0.0, 0.0, 0.0, 0.0, 0.0, 1.677538076204531E9, 0.0, 2023-02-27 14:47:56.204
161.0, 3956.862265689643, 2197.7799770569777, 998.6312387742089, 2582.0511677326167, -5737.379877254949, -4948.944443338447, -1029.1860734446136, -761.6133405701329, 0.216, -0.76, 0.678, 192.0, 0.0, 0.0, 0.0, 0.0, 0.0, 0.0, 0.0, 0.0, 0.0, 1.6775380762045457E9, 0.0, 2023-02-27 14:47:56.204
162.0, 3959.3433093241824, 2196.5506311119357, 998.4077213296558, 2584.3086939226027, -5736.664621432379, -4936.248652487833, -1032.0694484793482, -758.998186468862, 0.216, -0.76, 0.678, 192.0, 0.0, 0.0, 0.0, 0.0, 0.0, 0.0, 0.0, 0.0, 0.0, 1.677538076204553E9, 0.0, 2023-02-27 14:47:56.204
163.0, 3962.092573892185, 2199.7692823135, 1000.2182126305357, 2587.7955660576304, -5747.348755282015, -4939.31084147821, -1030.817750789851, -755.5560178227446, 0.216, -0.76, 0.678, 192.0, 0.0, 0.0, 0.0, 0.0, 0.0, 0.0, 0.0, 0.0, 0.0, 1.6775380762045596E9, 0.0, 2023-02-27 14:47:56.204
164.0, 3963.5454372817803, 2203.546727126447, 1000.8217097308291, 2584.4428043893345, -5760.648043232924, -4943.647079902539, -1029.0519629778819, -757.7464887793648, 0.216, -0.76, 0.678, 192.0, 0.0, 0.0, 0.0, 0.0, 0.0, 0.0, 0.0, 0.0, 0.0, 1.6775380762045667E9, 0.0, 2023-02-27 14:47:56.204
165.0, 3960.6173587581347, 2201.95975327012, 999.0335701744044, 2580.039510731639, -5755.216569330284, -4928.112617506101, -1031.4212478901445, -763.5132388488339, 0.216, -0.76, 0.678, 192.0, 0.0, 0.0, 0.0, 0.0, 0.0, 0.0, 0.0, 0.0, 0.0, 1.6775380762045736E9, 0.0, 2023-02-27 14:47:56.204
166.0, 3955.007070899853, 2197.712921823612, 996.5748782843207, 2583.7722520556754, -5729.959098095786, -4928.582004139663, -1034.4610851360662, -763.6026458266551, 0.216, -0.76, 0.678, 192.0, 0.0, 0.0, 0.0, 0.0, 0.0, 0.0, 0.0, 0.0, 0.0, 1.6775380762045808E9, 0.0, 2023-02-27 14:47:56.204
167.0, 3956.7281552229115, 2196.416520645204, 995.7478637394744, 2588.3320079245577, -5714.067007788063, -4948.206835771422, -1034.2822711804238, -763.2897214042808, 0.216, -0.76, 0.678, 192.0, 0.0, 0.0, 0.0, 0.0, 0.0, 0.0, 0.0, 0.0, 0.0, 1.6775380762045877E9, 0.0, 2023-02-27 14:47:56.204
168.0, 3955.319995322227, 2197.2435351900504, 995.725511995019, 2585.716853823287, -5727.232185272239, -4955.873484119593, -1034.1928642026025, -763.222666170915, 0.216, -0.76, 0.678, 192.0, 0.0, 0.0, 0.0, 0.0, 0.0, 0.0, 0.0, 0.0, 0.0, 1.6775380762045949E9, 0.0, 2023-02-27 14:47:56.204
169.0, 3959.097440135174, 2199.8586892913213, 998.2065556295581, 2580.8218217875747, -5734.138874308929, -4950.8443416171485, -1031.1977304455913, -764.0943842046719, 0.216, -0.76, 0.678, 192.0, 0.0, 0.0, 0.0, 0.0, 0.0, 0.0, 0.0, 0.0, 0.0, 1.6775380762046015E9, 0.0, 2023-02-27 14:47:56.204
170.0, 3958.7845157128, 2197.2882386789606, 997.8042242293626, 2582.2076299438036, -5738.452760988804, -4945.412867714509, -1030.8401025343064, -764.3626051381357, 0.212, -0.76, 0.676, 192.0, 6.0, 160.0, 232.0, 64.0, 21.0, 32.0, 0.0, 0.0, 0.0, 1.677538076204609E9, 0.0, 2023-02-27 14:47:56.204
171.0, 3958.292777334783, 2195.3659886558044, 997.2454306179799, 2586.677978834865, -5743.303089535605, -4949.570292183196, -1032.0247449904377, -761.4568783589457, 0.212, -0.76, 0.676, 192.0, 0.0, 0.0, 0.0, 0.0, 0.0, 0.0, 0.0, 0.0, 0.0, 1.6775380762046173E9, 0.0, 2023-02-27 14:47:56.204
172.0, 3953.710669721445, 2192.7284828100783, 994.853793961262, 2585.22511544527, -5752.467304762281, -4952.6101294291175, -1034.4163816471555, -762.8203347707195, 0.212, -0.76, 0.676, 192.0, 0.0, 0.0, 0.0, 0.0, 0.0, 0.0, 0.0, 0.0, 0.0, 1.6775380762046244E9, 0.0, 2023-02-27 14:47:56.204
173.0, 3954.001242399364, 2194.9413055111536, 995.5243462949213, 2579.9277520093624, -5753.227264073761, -4948.0280218157795, -1033.2317391910242, -765.1002127051607, 0.212, -0.76, 0.676, 192.0, 0.0, 0.0, 0.0, 0.0, 0.0, 0.0, 0.0, 0.0, 0.0, 1.677538076204631E9, 0.0, 2023-02-27 14:47:56.204
174.0, 3958.1139633791404, 2195.6789130781785, 995.6584567616532, 2579.458365375801, -5753.562540240591, -4948.385649727064, -1031.6447653346975, -765.6813580609987, 0.212, -0.76, 0.676, 192.0, 0.0, 0.0, 0.0, 0.0, 0.0, 0.0, 0.0, 0.0, 0.0, 1.6775380762046382E9, 0.0, 2023-02-27 14:47:56.204
175.0, 3956.549341267269, 2192.795538043444, 994.4514625610665, 2586.208592201304, -5728.394475983915, -4956.320519008698, -1033.9693467580494, -764.4743638604122, 0.212, -0.76, 0.676, 192.0, 0.0, 0.0, 0.0, 0.0, 0.0, 0.0, 0.0, 0.0, 0.0, 1.6775380762046452E9, 0.0, 2023-02-27 14:47:56.204
176.0, 3956.0128994003417, 2195.0307124889746, 995.2561253614576, 2589.203725958315, -5710.55778390858, -4976.034757618279, -1035.8915967812059, -761.188657425482, 0.212, -0.76, 0.676, 192.0, 0.0, 0.0, 0.0, 0.0, 0.0, 0.0, 0.0, 0.0, 0.0, 1.6775380762046576E9, 0.0, 2023-02-27 14:47:56.204
177.0, 3959.2986058352717, 2195.701264822634, 995.0549596613598, 2583.4816793777563, -5718.090321790019, -4960.500295221841, -1033.209387446569, -765.6143028276329, 0.212, -0.76, 0.676, 192.0, 0.0, 0.0, 0.0, 0.0, 0.0, 0.0, 0.0, 0.0, 0.0, 1.6775380762046647E9, 0.0, 2023-02-27 14:47:56.204
178.0, 3956.3481755671714, 2191.342674653849, 994.3844073277006, 2582.4758508772675, -5729.4226562288595, -4931.755951852316, -1035.7798380589293, -768.1176982066272, 0.212, -0.76, 0.676, 192.0, 0.0, 0.0, 0.0, 0.0, 0.0, 0.0, 0.0, 0.0, 0.0, 1.6775380762046716E9, 0.0, 2023-02-27 14:47:56.204
179.0, 3956.25876858935, 2191.5885438428577, 996.1948986285805, 2586.2756474346697, -5737.558691210591, -4944.474094447386, -1035.757486314474, -764.8096400272418, 0.212, -0.76, 0.676, 192.0, 0.0, 0.0, 0.0, 0.0, 0.0, 0.0, 0.0, 0.0, 0.0, 1.6775380762046788E9, 0.0, 2023-02-27 14:47:56.204
180.0, 3953.554207510258, 2189.8227560308883, 995.0326079169045, 2587.9967317577284, -5740.978508112253, -4955.69467016395, -1037.366811915256, -763.5579423377445, 0.216, -0.756, 0.674, 192.0, 6.0, 192.0, 232.0, 96.0, 21.0, 16.0, 0.0, 0.0, 0.0, 1.677538076204686E9, 0.0, 2023-02-27 14:47:56.204
181.0, 3952.0789923762077, 2189.375721141782, 994.7867387278961, 2585.4262811453677, -5739.905624378398, -4944.317632236199, -1039.758448571974, -763.9155702490294, 0.216, -0.756, 0.674, 192.0, 0.0, 0.0, 0.0, 0.0, 0.0, 0.0, 0.0, 0.0, 0.0, 1.6775380762046933E9, 0.0, 2023-02-27 14:47:56.204
182.0, 3950.06733537523, 2187.1405466962515, 994.9432009390832, 2583.593438100033, -5740.062086589585, -4935.064010031701, -1041.144256728203, -766.2177999279261, 0.216, -0.756, 0.674, 192.0, 0.0, 0.0, 0.0, 0.0, 0.0, 0.0, 0.0, 0.0, 0.0, 1.6775380762047002E9, 0.0, 2023-02-27 14:47:56.204
183.0, 3952.4589720319477, 2185.5312210954694, 995.2784771059129, 2585.627446845466, -5745.672374447868, -4953.034812573768, -1040.563111372365, -765.4578406164457, 0.216, -0.756, 0.674, 192.0, 0.0, 0.0, 0.0, 0.0, 0.0, 0.0, 0.0, 0.0, 0.0, 1.6775380762047071E9, 0.0, 2023-02-27 14:47:56.204
184.0, 3953.285986576794, 2185.3300553953713, 995.3008288503682, 2587.3485311685245, -5756.289453064139, -4955.962891097413, -1040.8983875391946, -761.7921545257753, 0.216, -0.756, 0.674, 192.0, 0.0, 0.0, 0.0, 0.0, 0.0, 0.0, 0.0, 0.0, 0.0, 1.6775380762047143E9, 0.0, 2023-02-27 14:47:56.204
185.0, 3944.1217713501183, 2183.988950728053, 994.0714829053263, 2585.0463014896277, -5754.94834839682, -4940.607242656618, -1044.273500951946, -763.1332591930937, 0.216, -0.756, 0.674, 192.0, 0.0, 0.0, 0.0, 0.0, 0.0, 0.0, 0.0, 0.0, 0.0, 1.6775380762047212E9, 0.0, 2023-02-27 14:47:56.204
186.0, 3949.486190019392, 2188.369892641293, 995.8596224617509, 2580.687711320843, -5748.108714593496, -4958.60039694314, -1041.6806985951303, -764.5414190937781, 0.216, -0.756, 0.674, 192.0, 0.0, 0.0, 0.0, 0.0, 0.0, 0.0, 0.0, 0.0, 0.0, 1.677538076204728E9, 0.0, 2023-02-27 14:47:56.204
187.0, 3958.44923954597, 2194.8742502777877, 998.7429974964855, 2580.1512694539156, -5762.056203133608, -4972.79375467226, -1036.6739078371415, -760.0934219471719, 0.216, -0.756, 0.674, 192.0, 0.0, 0.0, 0.0, 0.0, 0.0, 0.0, 0.0, 0.0, 0.0, 1.6775380762047355E9, 0.0, 2023-02-27 14:47:56.204
188.0, 3953.330690065705, 2193.3990351437374, 998.1842038851028, 2584.8674875339852, -5751.908511150898, -4957.147533553545, -1039.4231724051444, -756.5841980676888, 0.216, -0.756, 0.674, 192.0, 0.0, 0.0, 0.0, 0.0, 0.0, 0.0, 0.0, 0.0, 0.0, 1.6775380762047424E9, 0.0, 2023-02-27 14:47:56.204
189.0, 3948.815637685733, 2191.320322909394, 997.0666166623374, 2584.934542767351, -5732.37308649696, -4944.4517427029305, -1042.7982858178957, -757.2994538902586, 0.216, -0.756, 0.674, 192.0, 0.0, 0.0, 0.0, 0.0, 0.0, 0.0, 0.0, 0.0, 0.0, 1.677538076204749E9, 0.0, 2023-02-27 14:47:56.204
190.0, 3951.520198764825, 2191.9461717541426, 997.692465507086, 2579.2348479312477, -5745.582967470046, -4935.533396665263, -1041.8595125507727, -760.0040149693507, 0.214, -0.758, 0.68, 192.0, 6.0, 176.0, 232.0, 80.0, 21.0, 64.0, 0.0, 0.0, 0.0, 1.6775380762047563E9, 0.0, 2023-02-27 14:47:56.204
191.0, 3955.744678466878, 2193.24257293255, 997.9606864405497, 2578.4078333864013, -5759.753973454711, -4940.875463590081, -1039.400820660689, -758.931131235496, 0.214, -0.758, 0.68, 192.0, 0.0, 0.0, 0.0, 0.0, 0.0, 0.0, 0.0, 0.0, 0.0, 1.6775380762047637E9, 0.0, 2023-02-27 14:47:56.204
192.0, 3957.823390701222, 2192.6167240878017, 996.2619538619464, 2581.4923741212338, -5751.215607072783, -4951.894873606548, -1039.5125793829657, -758.8417242576747, 0.214, -0.758, 0.68, 192.0, 0.0, 0.0, 0.0, 0.0, 0.0, 0.0, 0.0, 0.0, 0.0, 1.6775380762047777E9, 0.0, 2023-02-27 14:47:56.204
193.0, 3953.5318557658024, 2189.867459519799, 995.4125875726447, 2584.196935200326, -5732.1272173079515, -4942.060106046213, -1041.367774172756, -759.7581457803424, 0.214, -0.758, 0.68, 192.0, 0.0, 0.0, 0.0, 0.0, 0.0, 0.0, 0.0, 0.0, 0.0, 1.6775380762047849E9, 0.0, 2023-02-27 14:47:56.204
194.0, 3954.3812220551044, 2191.0521019759303, 995.9266776951168, 2577.3349496525466, -5745.113580836485, -4949.257367760822, -1040.3395939278118, -761.0545469587502, 0.214, -0.758, 0.68, 192.0, 0.0, 0.0, 0.0, 0.0, 0.0, 0.0, 0.0, 0.0, 0.0, 1.6775380762047918E9, 0.0, 2023-02-27 14:47:56.204
195.0, 3959.7232889799225, 2193.175517699184, 997.2454306179799, 2577.424356630368, -5746.879368648454, -4952.163094540012, -1037.8809020377282, -760.9651399809289, 0.214, -0.758, 0.68, 192.0, 0.0, 0.0, 0.0, 0.0, 0.0, 0.0, 0.0, 0.0, 0.0, 1.6775380762047987E9, 0.0, 2023-02-27 14:47:56.204
196.0, 3956.191713355984, 2191.476785120581, 996.4184160731336, 2584.0628247335944, -5733.311859764083, -4945.949309581436, -1039.8702072942506, -761.6133405701329, 0.214, -0.758, 0.68, 192.0, 0.0, 0.0, 0.0, 0.0, 0.0, 0.0, 0.0, 0.0, 0.0, 1.677538076204806E9, 0.0, 2023-02-27 14:47:56.204
197.0, 3948.5697684967245, 2187.38641588526, 993.3785788272118, 2584.9568945118067, -5727.746275394711, -4945.994013070347, -1043.7594108294738, -763.5579423377445, 0.214, -0.758, 0.68, 192.0, 0.0, 0.0, 0.0, 0.0, 0.0, 0.0, 0.0, 0.0, 0.0, 1.677538076204813E9, 0.0, 2023-02-27 14:47:56.204
198.0, 3950.8496464311656, 2191.342674653849, 996.1725468841252, 2579.5254206091668, -5736.016420843175, -4956.8346091311705, -1038.596157860298, -763.803811526753, 0.214, -0.758, 0.68, 192.0, 0.0, 0.0, 0.0, 0.0, 0.0, 0.0, 0.0, 0.0, 0.0, 1.67753807620482E9, 0.0, 2023-02-27 14:47:56.204
199.0, 3958.5609982682467, 2193.9801804995755, 998.4747765630218, 2580.330083409558, -5735.703496420801, -4959.896798121548, -1036.2715764369461, -764.7202330494206, 0.214, -0.758, 0.68, 192.0, 0.0, 0.0, 0.0, 0.0, 0.0, 0.0, 0.0, 0.0, 0.0, 1.6775380762048268E9, 0.0, 2023-02-27 14:47:56.204
200.0, 3956.102306378163, 2188.7722240414887, 995.1667183836364, 2586.4097579014015, -5727.232185272239, -4935.220472242889, -1042.2618439509683, -766.0836894611942, 0.218, -0.76, 0.676, 192.0, 6.0, 208.0, 232.0, 64.0, 21.0, 32.0, 0.0, 0.0, 0.0, 1.677538076204834E9, 0.0, 2023-02-27 14:47:56.204
201.0, 3955.6552714890568, 2188.325189152383, 995.0102561724492, 2588.6896358358426, -5732.976583597253, -4941.367201968098, -1043.82646606284, -763.4014801265574, 0.218, -0.76, 0.676, 192.0, 0.0, 0.0, 0.0, 0.0, 0.0, 0.0, 0.0, 0.0, 0.0, 1.6775380762048414E9, 0.0, 2023-02-27 14:47:56.204
202.0, 3958.493943034881, 2190.4262531311815, 995.4125875726447, 2582.1852781993484, -5739.972679611765, -4953.772420140794, -1041.3454224283007, -766.3072069057473, 0.218, -0.76, 0.676, 192.0, 0.0, 0.0, 0.0, 0.0, 0.0, 0.0, 0.0, 0.0, 0.0, 1.6775380762048483E9, 0.0, 2023-02-27 14:47:56.204
203.0, 3960.103268635663, 2193.1308142102735, 997.4465963180777, 2581.2241531877703, -5737.916319121876, -4938.260309488811, -1038.171474715647, -765.413137127535, 0.218, -0.76, 0.676, 192.0, 0.0, 0.0, 0.0, 0.0, 0.0, 0.0, 0.0, 0.0, 0.0, 1.6775380762048557E9, 0.0, 2023-02-27 14:47:56.204
204.0, 3959.812695957744, 2192.840241532355, 996.7760439844185, 2585.292170678636, -5737.558691210591, -4933.342925708643, -1040.3172421833567, -762.7979830262641, 0.218, -0.76, 0.676, 192.0, 0.0, 0.0, 0.0, 0.0, 0.0, 0.0, 0.0, 0.0, 0.0, 1.6775380762048624E9, 0.0, 2023-02-27 14:47:56.204
205.0, 3962.2713878478276, 2194.091939221852, 995.9713811840275, 2585.8956677789292, -5745.09122909203, -4942.753010124327, -1043.1335619847252, -761.1216021921161, 0.218, -0.76, 0.676, 192.0, 0.0, 0.0, 0.0, 0.0, 0.0, 0.0, 0.0, 0.0, 0.0, 1.6775380762048695E9, 0.0, 2023-02-27 14:47:56.204
206.0, 3969.4686495624364, 2197.712921823612, 997.7148172515414, 2580.1959729428263, -5753.540188496136, -4951.805466628726, -1041.7924573174068, -761.9486167369624, 0.218, -0.76, 0.676, 192.0, 0.0, 0.0, 0.0, 0.0, 0.0, 0.0, 0.0, 0.0, 0.0, 1.6775380762048764E9, 0.0, 2023-02-27 14:47:56.204
207.0, 3971.525010052325, 2199.7469305690447, 999.6817707636084, 2578.2513711752144, -5748.958080882798, -4952.855998618126, -1038.5067508824768, -762.5297620928004, 0.218, -0.76, 0.676, 192.0, 0.0, 0.0, 0.0, 0.0, 0.0, 0.0, 0.0, 0.0, 0.0, 1.6775380762048836E9, 0.0, 2023-02-27 14:47:56.204
208.0, 3970.3850710851043, 2198.606991601824, 1000.0841021638039, 2583.884010777952, -5742.476074990759, -4956.052298075235, -1037.6797363376304, -760.3169393917251, 0.218, -0.76, 0.676, 192.0, 0.0, 0.0, 0.0, 0.0, 0.0, 0.0, 0.0, 0.0, 0.0, 1.677538076204896E9, 0.0, 2023-02-27 14:47:56.204
209.0, 3969.870980962632, 2198.6516950907344, 998.2959626073794, 2586.543868368133, -5746.879368648454, -4950.956100339425, -1038.819675304851, -760.1828289249931, 0.218, -0.76, 0.676, 192.0, 0.0, 0.0, 0.0, 0.0, 0.0, 0.0, 0.0, 0.0, 0.0, 1.6775380762049031E9, 0.0, 2023-02-27 14:47:56.204
210.0, 3971.323844352227, 2199.925744524687, 999.7041225080637, 2586.1862404568483, -5748.220473315772, -4938.014440299802, -1036.6739078371415, -760.3169393917251, 0.222, -0.752, 0.686, 192.0, 6.0, 240.0, 232.0, 128.0, 21.0, 112.0, 0.0, 0.0, 0.0, 1.6775380762049108E9, 0.0, 2023-02-27 14:47:56.204
211.0, 3970.3180158517384, 2200.663352091712, 1000.3299713528123, 2581.4923741212338, -5737.961022610787, -4947.066896804202, -1035.9139485256612, -763.8485150156636, 0.222, -0.752, 0.686, 192.0, 0.0, 0.0, 0.0, 0.0, 0.0, 0.0, 0.0, 0.0, 0.0, 1.677538076204919E9, 0.0, 2023-02-27 14:47:56.204
212.0, 3969.289835606794, 2199.2104887021173, 1000.4640818195442, 2584.3981009004237, -5736.105827820997, -4934.795789098238, -1037.7020880820858, -761.9486167369624, 0.222, -0.752, 0.686, 192.0, 0.0, 0.0, 0.0, 0.0, 0.0, 0.0, 0.0, 0.0, 0.0, 1.677538076204926E9, 0.0, 2023-02-27 14:47:56.204
213.0, 3973.223742630928, 2199.322247424394, 1000.6205440307313, 2588.197897457826, -5744.085400591541, -4948.653870660529, -1038.529102626932, -758.6852620464877, 0.222, -0.752, 0.686, 192.0, 0.0, 0.0, 0.0, 0.0, 0.0, 0.0, 0.0, 0.0, 0.0, 1.6775380762049332E9, 0.0, 2023-02-27 14:47:56.204
214.0, 3975.5706757987355, 2199.635171846768, 999.6147155302425, 2585.3815776564575, -5747.393458770926, -4960.321481266199, -1040.3842974167226, -760.7192707919206, 0.222, -0.752, 0.686, 192.0, 0.0, 0.0, 0.0, 0.0, 0.0, 0.0, 0.0, 0.0, 0.0, 1.6775380762049415E9, 0.0, 2023-02-27 14:47:56.204
215.0, 3975.54832405428, 2200.730407325078, 1001.0005236864715, 2580.643007831932, -5752.310842551094, -4957.527513209286, -1039.0655444938595, -763.6697010600211, 0.222, -0.752, 0.686, 192.0, 0.0, 0.0, 0.0, 0.0, 0.0, 0.0, 0.0, 0.0, 0.0, 1.6775380762049491E9, 0.0, 2023-02-27 14:47:56.204
216.0, 3972.0838036637074, 2198.115253223807, 1001.8722417202284, 2584.0628247335944, -5759.5975112435235, -4942.2165682574, -1035.3775066587339, -761.9262649925072, 0.222, -0.752, 0.686, 192.0, 0.0, 0.0, 0.0, 0.0, 0.0, 0.0, 0.0, 0.0, 0.0, 1.6775380762049563E9, 0.0, 2023-02-27 14:47:56.204
217.0, 3967.7252134949226, 2193.510793866014, 999.793529485885, 2591.4389004038458, -5751.148551839417, -4942.909472335515, -1040.0713729943482, -759.4005178690575, 0.222, -0.752, 0.686, 192.0, 0.0, 0.0, 0.0, 0.0, 0.0, 0.0, 0.0, 0.0, 0.0, 1.6775380762049632E9, 0.0, 2023-02-27 14:47:56.204
218.0, 3969.915684451543, 2193.6672560772013, 1000.0393986748933, 2590.477775392267, -5753.070801862575, -4965.395327257554, -1039.467875894055, -761.3898231255798, 0.222, -0.752, 0.686, 192.0, 0.0, 0.0, 0.0, 0.0, 0.0, 0.0, 0.0, 0.0, 0.0, 1.6775380762049704E9, 0.0, 2023-02-27 14:47:56.204
219.0, 3969.580408284713, 2193.1084624658183, 1000.598192286276, 2585.94037126784, -5740.531473223147, -4970.5138767378185, -1039.601986360787, -764.3179016492251, 0.222, -0.752, 0.686, 192.0, 0.0, 0.0, 0.0, 0.0, 0.0, 0.0, 0.0, 0.0, 0.0, 1.6775380762049775E9, 0.0, 2023-02-27 14:47:56.204
220.0, 3962.2490361033724, 2188.5934100858462, 998.7653492409407, 2590.2989614366247, -5726.271060260661, -4931.398323941031, -1041.7924573174068, -765.1449161940714, 0.21, -0.76, 0.682, 192.0, 6.0, 144.0, 232.0, 64.0, 21.0, 80.0, 0.0, 0.0, 0.0, 1.6775380762049844E9, 0.0, 2023-02-27 14:47:56.204
221.0, 3961.0867453916962, 2185.508869351014, 996.7313404955079, 2595.328103939069, -5736.686973176834, -4923.798730826227, -1045.145218985703, -763.1109074486384, 0.21, -0.76, 0.682, 192.0, 0.0, 0.0, 0.0, 0.0, 0.0, 0.0, 0.0, 0.0, 0.0, 1.677538076204992E9, 0.0, 2023-02-27 14:47:56.204
222.0, 3965.065355904741, 2188.1687269411955, 998.3183143518346, 2598.166775484893, -5744.599490714013, -4931.823007085683, -1044.4746666520437, -757.6347300570882, 0.21, -0.76, 0.682, 192.0, 0.0, 0.0, 0.0, 0.0, 0.0, 0.0, 0.0, 0.0, 0.0, 1.6775380762049997E9, 0.0, 2023-02-27 14:47:56.204
223.0, 3962.2490361033724, 2188.369892641293, 997.9383346960944, 2593.3387986825464, -5735.65879293189, -4938.573233911185, -1044.8769980522393, -760.0934219471719, 0.21, -0.76, 0.682, 192.0, 0.0, 0.0, 0.0, 0.0, 0.0, 0.0, 0.0, 0.0, 0.0, 1.6775380762050066E9, 0.0, 2023-02-27 14:47:56.205
224.0, 3965.043004160286, 2189.643942075246, 998.6982940075749, 2592.9364672823513, -5731.501368463203, -4945.859902603615, -1042.7759340734403, -760.383994625091, 0.21, -0.76, 0.682, 192.0, 0.0, 0.0, 0.0, 0.0, 0.0, 0.0, 0.0, 0.0, 0.0, 1.6775380762050204E9, 0.0, 2023-02-27 14:47:56.205
225.0, 3967.4122890725484, 2190.7168258091006, 999.2570876189576, 2596.1774702283706, -5744.890063391932, -4959.874446377093, -1040.6078148612755, -758.5958550686664, 0.21, -0.76, 0.682, 192.0, 0.0, 0.0, 0.0, 0.0, 0.0, 0.0, 0.0, 0.0, 0.0, 1.6775380762050276E9, 0.0, 2023-02-27 14:47:56.205
226.0, 3968.3063588507607, 2191.923820009687, 999.8382329747956, 2599.4631766633006, -5742.6325372019455, -4953.861827118615, -1040.2948904389013, -757.254750401348, 0.21, -0.76, 0.682, 192.0, 0.0, 0.0, 0.0, 0.0, 0.0, 0.0, 0.0, 0.0, 0.0, 1.6775380762050345E9, 0.0, 2023-02-27 14:47:56.205
227.0, 3964.618321015635, 2189.934514753165, 998.3630178407452, 2595.7974905726305, -5738.2292435442505, -4944.40703921402, -1042.0606782508705, -760.2051806694485, 0.21, -0.76, 0.682, 192.0, 0.0, 0.0, 0.0, 0.0, 0.0, 0.0, 0.0, 0.0, 0.0, 1.6775380762050416E9, 0.0, 2023-02-27 14:47:56.205
228.0, 3963.8583617041545, 2189.7780525419776, 999.3688463412341, 2593.8528888050187, -5738.318650522072, -4947.69274564895, -1039.3114136828679, -760.9651399809289, 0.21, -0.76, 0.682, 192.0, 0.0, 0.0, 0.0, 0.0, 0.0, 0.0, 0.0, 0.0, 0.0, 1.6775380762050488E9, 0.0, 2023-02-27 14:47:56.205
229.0, 3962.137277381096, 2186.961732740609, 997.4018928291671, 2595.775138828175, -5743.1019238355075, -4951.939577095459, -1040.0043177609823, -758.7299655353983, 0.21, -0.76, 0.682, 192.0, 0.0, 0.0, 0.0, 0.0, 0.0, 0.0, 0.0, 0.0, 0.0, 1.677538076205056E9, 0.0, 2023-02-27 14:47:56.205
230.0, 3961.2655593473387, 2187.5875815853574, 997.7371689959966, 2598.300885951625, -5754.791886185633, -4958.823914387693, -1039.9372625276164, -755.1983899114597, 0.214, -0.764, 0.6920000000000001, 192.0, 6.0, 176.0, 232.0, 32.0, 21.0, 160.0, 0.0, 0.0, 0.0, 1.677538076205063E9, 0.0, 2023-02-27 14:47:56.205
231.0, 3965.557094282758, 2190.381549642271, 999.4359015746, 2595.1716417278817, -5759.575159499069, -4954.621786430095, -1038.1044194822812, -757.7464887793648, 0.214, -0.764, 0.6920000000000001, 192.0, 0.0, 0.0, 0.0, 0.0, 0.0, 0.0, 0.0, 0.0, 0.0, 1.6775380762050705E9, 0.0, 2023-02-27 14:47:56.205
232.0, 3965.8476669606766, 2189.733349053067, 998.5418317963877, 2591.260086448203, -5759.955139154808, -4947.580986926673, -1039.0655444938595, -762.4403551149792, 0.214, -0.764, 0.6920000000000001, 192.0, 0.0, 0.0, 0.0, 0.0, 0.0, 0.0, 0.0, 0.0, 0.0, 1.6775380762050774E9, 0.0, 2023-02-27 14:47:56.205
233.0, 3966.0935361496854, 2188.347540896838, 997.7148172515414, 2594.5904963720436, -5757.049412375619, -4960.008556843824, -1039.5125793829657, -761.8592097591412, 0.214, -0.764, 0.6920000000000001, 192.0, 0.0, 0.0, 0.0, 0.0, 0.0, 0.0, 0.0, 0.0, 0.0, 1.6775380762050843E9, 0.0, 2023-02-27 14:47:56.205
234.0, 3965.8476669606766, 2189.085148463863, 998.7877009853961, 2599.932563296862, -5751.640290217435, -4976.750013440849, -1037.5456258708984, -761.0321952142949, 0.214, -0.764, 0.6920000000000001, 192.0, 0.0, 0.0, 0.0, 0.0, 0.0, 0.0, 0.0, 0.0, 0.0, 1.6775380762050915E9, 0.0, 2023-02-27 14:47:56.205
235.0, 3958.7621639683443, 2185.5312210954694, 996.5748782843207, 2597.317409195591, -5744.3312697805495, -4972.07849884969, -1040.5184078834543, -762.5968173261664, 0.214, -0.764, 0.6920000000000001, 192.0, 0.0, 0.0, 0.0, 0.0, 0.0, 0.0, 0.0, 0.0, 0.0, 1.6775380762050993E9, 0.0, 2023-02-27 14:47:56.205
236.0, 3956.9516726674647, 2183.9442472391424, 995.3008288503682, 2592.9588190268064, -5747.2146448152835, -4952.274853262288, -1043.982928274027, -765.4578406164457, 0.214, -0.764, 0.6920000000000001, 192.0, 0.0, 0.0, 0.0, 0.0, 0.0, 0.0, 0.0, 0.0, 0.0, 1.6775380762051065E9, 0.0, 2023-02-27 14:47:56.205
237.0, 3958.5386465237916, 2185.7547385400226, 997.468948062533, 2595.350455683524, -5753.651947218412, -4961.9978621003465, -1041.8595125507727, -763.0438522152725, 0.214, -0.764, 0.6920000000000001, 192.0, 0.0, 0.0, 0.0, 0.0, 0.0, 0.0, 0.0, 0.0, 0.0, 1.6775380762051134E9, 0.0, 2023-02-27 14:47:56.205
238.0, 3958.9186261795317, 2185.508869351014, 997.5807067848095, 2598.636162118454, -5760.0668978770855, -4974.380728528587, -1038.663213093664, -764.4520121159569, 0.214, -0.764, 0.6920000000000001, 192.0, 0.0, 0.0, 0.0, 0.0, 0.0, 0.0, 0.0, 0.0, 0.0, 1.6775380762051203E9, 0.0, 2023-02-27 14:47:56.205
239.0, 3952.324861565216, 2183.8548402613214, 997.6701137626308, 2598.7926243296415, -5765.610130502001, -4951.7831148842715, -1040.3395939278118, -764.0049772268507, 0.214, -0.764, 0.6920000000000001, 192.0, 0.0, 0.0, 0.0, 0.0, 0.0, 0.0, 0.0, 0.0, 0.0, 1.6775380762051272E9, 0.0, 2023-02-27 14:47:56.205
240.0, 3947.094553362674, 2180.5914855708465, 995.9266776951168, 2595.395159172435, -5759.753973454711, -4939.154379267023, -1043.468838151555, -766.2625034168367, 0.20800000000000002, -0.762, 0.684, 192.0, 6.0, 128.0, 232.0, 48.0, 21.0, 96.0, 0.0, 0.0, 0.0, 1.6775380762051406E9, 0.0, 2023-02-27 14:47:56.205
241.0, 3949.977928397409, 2180.1668024261958, 995.9713811840275, 2597.630333617966, -5739.995031356219, -4954.532379452274, -1043.2453207070018, -764.2508464158591, 0.20800000000000002, -0.762, 0.684, 192.0, 0.0, 0.0, 0.0, 0.0, 0.0, 0.0, 0.0, 0.0, 0.0, 1.6775380762051482E9, 0.0, 2023-02-27 14:47:56.205
242.0, 3953.5318557658024, 2181.2843896489608, 994.7420352389855, 2600.9830952862617, -5739.413886000381, -4962.847228389648, -1043.9158730406612, -761.9709684814178, 0.20800000000000002, -0.762, 0.684, 192.0, 0.0, 0.0, 0.0, 0.0, 0.0, 0.0, 0.0, 0.0, 0.0, 1.6775380766849935E9, 0.0, 2023-02-27 14:47:56.684
243.0, 3951.8554749316545, 2183.8101367724107, 995.0549596613598, 2600.5360603971553, -5746.454685503803, -4973.017272116813, -1042.3065474398788, -760.2722359028144, 0.20800000000000002, -0.762, 0.684, 192.0, 0.0, 0.0, 0.0, 0.0, 0.0, 0.0, 0.0, 0.0, 0.0, 1.6775380766850162E9, 0.0, 2023-02-27 14:47:56.685
244.0, 3957.6222250011238, 2188.1687269411955, 997.4465963180777, 2593.3164469380913, -5763.240845589739, -4972.726699438894, -1038.9761375160383, -761.3451196366692, 0.20800000000000002, -0.762, 0.684, 192.0, 0.0, 0.0, 0.0, 0.0, 0.0, 0.0, 0.0, 0.0, 0.0, 1.6775380766850245E9, 0.0, 2023-02-27 14:47:56.685
245.0, 3956.2140651004393, 2185.1288896952738, 996.5301747954101, 2595.775138828175, -5769.298168337127, -4939.042620544747, -1039.8702072942506, -763.0885557041831, 0.20800000000000002, -0.762, 0.684, 192.0, 0.0, 0.0, 0.0, 0.0, 0.0, 0.0, 0.0, 0.0, 0.0, 1.6775380766850317E9, 0.0, 2023-02-27 14:47:56.685
246.0, 3954.3365185661937, 2182.759604783011, 995.0102561724492, 2602.167737742393, -5752.981394884753, -4933.901719320026, -1041.9042160396834, -761.1439539365714, 0.20800000000000002, -0.762, 0.684, 192.0, 0.0, 0.0, 0.0, 0.0, 0.0, 0.0, 0.0, 0.0, 0.0, 1.6775380766850393E9, 0.0, 2023-02-27 14:47:56.685
247.0, 3956.906969178554, 2180.703244293123, 993.1550613826587, 2604.8275953325747, -5732.171920796862, -4939.042620544747, -1045.078163752337, -761.0321952142949, 0.20800000000000002, -0.762, 0.684, 192.0, 0.0, 0.0, 0.0, 0.0, 0.0, 0.0, 0.0, 0.0, 0.0, 1.6775380766850464E9, 0.0, 2023-02-27 14:47:56.685
248.0, 3953.978890654909, 2179.3844913702596, 992.3951020711783, 2599.932563296862, -5723.544147437114, -4943.892949091548, -1045.2569777079796, -764.7425847938758, 0.20800000000000002, -0.762, 0.684, 192.0, 0.0, 0.0, 0.0, 0.0, 0.0, 0.0, 0.0, 0.0, 0.0, 1.677538076685053E9, 0.0, 2023-02-27 14:47:56.685
249.0, 3953.5989109991688, 2183.340750138849, 995.5466980393766, 2598.8596795630074, -5726.114598049474, -4943.848245602638, -1041.0324980059265, -763.803811526753, 0.20800000000000002, -0.762, 0.684, 192.0, 0.0, 0.0, 0.0, 0.0, 0.0, 0.0, 0.0, 0.0, 0.0, 1.6775380766850605E9, 0.0, 2023-02-27 14:47:56.685
250.0, 3956.236416844895, 2185.061834461908, 996.306657350857, 2602.6371243759545, -5732.216624285773, -4941.166036268, -1040.429000905633, -759.6016835691552, 0.20800000000000002, -0.762, 0.684, 192.0, 0.0, 0.0, 0.0, 0.0, 0.0, 0.0, 0.0, 0.0, 0.0, 1.6775380766850674E9, 0.0, 2023-02-27 14:47:56.685
251.0, 3959.2762540908166, 2189.152203697229, 997.759520740452, 2605.162871499404, -5737.625746443957, -4951.045507317246, -1041.077201494837, -755.0642794447278, 0.20800000000000002, -0.762, 0.686, 192.0, 6.0, 128.0, 232.0, 48.0, 21.0, 112.0, 0.0, 0.0, 0.0, 1.6775380766850743E9, 0.0, 2023-02-27 14:47:56.685
252.0, 3960.5950070136796, 2191.0073984870196, 997.6477620181754, 2599.3514179410245, -5740.129141822951, -4950.866693361604, -1041.0101462614712, -758.7076137909429, 0.20800000000000002, -0.762, 0.686, 192.0, 0.0, 0.0, 0.0, 0.0, 0.0, 0.0, 0.0, 0.0, 0.0, 1.6775380766850824E9, 0.0, 2023-02-27 14:47:56.685
253.0, 3961.645539003079, 2190.7168258091006, 997.2901341068905, 2596.5350981396555, -5744.197159313818, -4942.194216512945, -1041.0324980059265, -758.7970207687641, 0.20800000000000002, -0.762, 0.686, 192.0, 0.0, 0.0, 0.0, 0.0, 0.0, 0.0, 0.0, 0.0, 0.0, 1.6775380766850893E9, 0.0, 2023-02-27 14:47:56.685
254.0, 3962.2713878478276, 2190.515660109003, 997.8936312071838, 2601.0948540085383, -5747.952252382309, -4949.570292183196, -1040.116076483259, -755.0195759558172, 0.20800000000000002, -0.762, 0.686, 192.0, 0.0, 0.0, 0.0, 0.0, 0.0, 0.0, 0.0, 0.0, 0.0, 1.6775380766850965E9, 0.0, 2023-02-27 14:47:56.685
255.0, 3967.7252134949226, 2191.0968054648406, 999.0112184299492, 2604.9170023103957, -5750.433296016848, -4952.163094540012, -1040.3395939278118, -754.9078172335408, 0.20800000000000002, -0.762, 0.686, 192.0, 0.0, 0.0, 0.0, 0.0, 0.0, 0.0, 0.0, 0.0, 0.0, 1.6775380766851032E9, 0.0, 2023-02-27 14:47:56.685
0.0, 3969.2451321178837, 2191.7226543095894, 998.8994597076726, 2601.94422029784, -5742.1631505683845, -4955.292338763755, -1041.4124776616666, -755.9583492229401, 0.20800000000000002, -0.762, 0.686, 192.0, 0.0, 0.0, 0.0, 0.0, 0.0, 0.0, 0.0, 0.0, 0.0, 1.6775380766851747E9, 0.0, 2023-02-27 14:47:56.685
1.0, 3961.1761523695177, 2188.213430430106, 997.0442649178822, 2596.557449884111, -5738.385705755438, -4968.546923225752, -1043.8711695517504, -757.9700062239178, 0.20800000000000002, -0.762, 0.686, 192.0, 0.0, 0.0, 0.0, 0.0, 0.0, 0.0, 0.0, 0.0, 0.0, 1.677538076685182E9, 0.0, 2023-02-27 14:47:56.685
2.0, 3957.7563354678555, 2186.313532151405, 997.5136515514436, 2599.641990618943, -5750.120371594474, -4961.327309766688, -1042.753582328985, -756.5841980676888, 0.20800000000000002, -0.762, 0.686, 192.0, 0.0, 0.0, 0.0, 0.0, 0.0, 0.0, 0.0, 0.0, 0.0, 1.67753807668519E9, 0.0, 2023-02-27 14:47:56.685
3.0, 3958.516294779336, 2187.989912985553, 998.497128307477, 2602.882993564963, -5765.654833990912, -4957.058126575724, -1041.6359951062198, -754.6172445556217, 0.20800000000000002, -0.762, 0.686, 192.0, 0.0, 0.0, 0.0, 0.0, 0.0, 0.0, 0.0, 0.0, 0.0, 1.677538076685197E9, 0.0, 2023-02-27 14:47:56.685
4.0, 3955.4317540445036, 2187.5875815853574, 997.4018928291671, 2599.7537493412196, -5770.974549171276, -4946.843379359649, -1045.2569777079796, -755.220741655915, 0.20800000000000002, -0.762, 0.686, 192.0, 0.0, 0.0, 0.0, 0.0, 0.0, 0.0, 0.0, 0.0, 0.0, 1.6775380766852043E9, 0.0, 2023-02-27 14:47:56.685
5.0, 3957.197541856473, 2187.967561241098, 998.0053899294603, 2596.579801628566, -5749.539226238636, -4952.45366721793, -1044.653480607686, -758.7076137909429, 0.21, -0.76, 0.678, 192.0, 6.0, 144.0, 232.0, 64.0, 21.0, 48.0, 0.0, 0.0, 0.0, 1.6775380766852112E9, 0.0, 2023-02-27 14:47:56.685
6.0, 3955.5658645112358, 2186.1347181957626, 997.5136515514436, 2597.0491882621277, -5733.378914997449, -4972.838458161171, -1045.592253874809, -759.3781661246021, 0.21, -0.76, 0.678, 192.0, 0.0, 0.0, 0.0, 0.0, 0.0, 0.0, 0.0, 0.0, 0.0, 1.6775380766852188E9, 0.0, 2023-02-27 14:47:56.685
7.0, 3958.9186261795317, 2187.118194951796, 998.3630178407452, 2601.541888897644, -5742.409019757392, -4974.693652950961, -1046.5533788863872, -755.8912939895743, 0.21, -0.76, 0.678, 192.0, 0.0, 0.0, 0.0, 0.0, 0.0, 0.0, 0.0, 0.0, 0.0, 1.677538076685226E9, 0.0, 2023-02-27 14:47:56.685
8.0, 3959.835047702199, 2187.475822863081, 998.6535905186643, 2602.190089486848, -5759.396345543426, -4944.116466536101, -1044.8099428188734, -755.4219073560128, 0.21, -0.76, 0.678, 192.0, 0.0, 0.0, 0.0, 0.0, 0.0, 0.0, 0.0, 0.0, 0.0, 1.6775380766852329E9, 0.0, 2023-02-27 14:47:56.685
9.0, 3955.7223267224226, 2183.340750138849, 997.4912998069883, 2599.641990618943, -5758.636386231946, -4919.037809257246, -1045.7487160859962, -757.8582475016412, 0.21, -0.76, 0.678, 192.0, 0.0, 0.0, 0.0, 0.0, 0.0, 0.0, 0.0, 0.0, 0.0, 1.6775380766852398E9, 0.0, 2023-02-27 14:47:56.685
10.0, 3952.1683993540287, 2180.6138373153017, 996.5078230509548, 2603.2406214762477, -5736.821083643566, -4929.431370428964, -1046.1286957417365, -758.7076137909429, 0.21, -0.76, 0.678, 192.0, 0.0, 0.0, 0.0, 0.0, 0.0, 0.0, 0.0, 0.0, 0.0, 1.6775380766852467E9, 0.0, 2023-02-27 14:47:56.685
11.0, 3952.25780633185, 2179.250380903528, 995.3902358281895, 2607.778025600675, -5734.921185364865, -4937.5227019217855, -1047.2239312200466, -756.964177723429, 0.21, -0.76, 0.678, 192.0, 0.0, 0.0, 0.0, 0.0, 0.0, 0.0, 0.0, 0.0, 0.0, 1.6775380766852539E9, 0.0, 2023-02-27 14:47:56.685
12.0, 3953.263634832339, 2182.066700704897, 997.4242445736223, 2607.1521767559266, -5748.600452971513, -4946.083420048168, -1046.7768963309404, -755.3995556115575, 0.21, -0.76, 0.678, 192.0, 0.0, 0.0, 0.0, 0.0, 0.0, 0.0, 0.0, 0.0, 0.0, 1.6775380766852608E9, 0.0, 2023-02-27 14:47:56.685
13.0, 3955.208236599951, 2184.704206550623, 998.34066609629, 2600.2454877192367, -5746.030002359153, -4956.767553897805, -1046.6874893531192, -758.640558557577, 0.21, -0.76, 0.678, 192.0, 0.0, 0.0, 0.0, 0.0, 0.0, 0.0, 0.0, 0.0, 0.0, 1.6775380766852677E9, 0.0, 2023-02-27 14:47:56.685
14.0, 3954.001242399364, 2184.637151317257, 998.0277416739157, 2601.0948540085383, -5742.677240690857, -4955.068821319202, -1046.5533788863872, -759.6016835691552, 0.21, -0.76, 0.678, 192.0, 0.0, 0.0, 0.0, 0.0, 0.0, 0.0, 0.0, 0.0, 0.0, 1.6775380766852748E9, 0.0, 2023-02-27 14:47:56.685
15.0, 3951.587253998191, 2182.1337559382628, 997.2454306179799, 2605.475795921778, -5748.712211693789, -4943.5129694358075, -1047.7156695980632, -758.3276341352027, 0.20600000000000002, -0.762, 0.674, 192.0, 6.0, 112.0, 232.0, 48.0, 21.0, 16.0, 0.0, 0.0, 0.0, 1.6775380766852815E9, 0.0, 2023-02-27 14:47:56.685
16.0, 3951.8554749316545, 2182.156107682718, 997.0219131734268, 2607.196880244837, -5755.753011197211, -4949.927920094481, -1045.6146056192645, -758.1041166906497, 0.20600000000000002, -0.762, 0.674, 192.0, 0.0, 0.0, 0.0, 0.0, 0.0, 0.0, 0.0, 0.0, 0.0, 1.6775380766852949E9, 0.0, 2023-02-27 14:47:56.685
17.0, 3953.621262743624, 2182.156107682718, 997.111320151248, 2605.2969819661357, -5736.396400498915, -4943.065934546702, -1043.9158730406612, -759.802849269253, 0.20600000000000002, -0.762, 0.674, 192.0, 0.0, 0.0, 0.0, 0.0, 0.0, 0.0, 0.0, 0.0, 0.0, 1.677538076685302E9, 0.0, 2023-02-27 14:47:56.685
18.0, 3953.3977452990707, 2177.3728343692824, 994.2950003498794, 2604.84994707703, -5721.487786947226, -4938.6402891445505, -1045.1899224746135, -764.1837911824931, 0.20600000000000002, -0.762, 0.674, 192.0, 0.0, 0.0, 0.0, 0.0, 0.0, 0.0, 0.0, 0.0, 0.0, 1.6775380766853087E9, 0.0, 2023-02-27 14:47:56.685
19.0, 3950.737887708889, 2174.869438990288, 994.5632212833431, 2609.8790895794737, -5726.494577705214, -4932.292393719244, -1045.4804951525325, -761.7921545257753, 0.20600000000000002, -0.762, 0.674, 192.0, 0.0, 0.0, 0.0, 0.0, 0.0, 0.0, 0.0, 0.0, 0.0, 1.6775380766853158E9, 0.0, 2023-02-27 14:47:56.685
20.0, 3952.59308249868, 2177.57400006938, 995.8596224617509, 2611.287249480158, -5746.700554692812, -4945.301108992232, -1045.435791663622, -757.7241370349094, 0.20600000000000002, -0.762, 0.674, 192.0, 0.0, 0.0, 0.0, 0.0, 0.0, 0.0, 0.0, 0.0, 0.0, 1.6775380766853228E9, 0.0, 2023-02-27 14:47:56.685
21.0, 3956.035251144797, 2180.0997471928295, 996.7536922399631, 2604.782891843664, -5755.104810608007, -4949.6149956721065, -1043.2453207070018, -759.1993521689596, 0.20600000000000002, -0.762, 0.674, 192.0, 0.0, 0.0, 0.0, 0.0, 0.0, 0.0, 0.0, 0.0, 0.0, 1.6775380766853297E9, 0.0, 2023-02-27 14:47:56.685
22.0, 3955.8564371891543, 2176.85874424681, 995.725511995019, 2602.7935865871414, -5746.365278525982, -4940.8084083567155, -1043.848817807295, -761.7921545257753, 0.20600000000000002, -0.762, 0.674, 192.0, 0.0, 0.0, 0.0, 0.0, 0.0, 0.0, 0.0, 0.0, 0.0, 1.677538076685338E9, 0.0, 2023-02-27 14:47:56.685
23.0, 3958.6280535016126, 2174.8470872458324, 994.272648605424, 2607.5321564116666, -5748.220473315772, -4942.261271746311, -1045.1899224746135, -761.3227678922138, 0.20600000000000002, -0.762, 0.674, 192.0, 0.0, 0.0, 0.0, 0.0, 0.0, 0.0, 0.0, 0.0, 0.0, 1.6775380766853454E9, 0.0, 2023-02-27 14:47:56.685
24.0, 3957.3540040676603, 2178.66923554769, 995.8596224617509, 2610.2143657463034, -5751.707345450801, -4955.180580041478, -1044.1840939741248, -757.3218056347139, 0.20600000000000002, -0.762, 0.674, 192.0, 0.0, 0.0, 0.0, 0.0, 0.0, 0.0, 0.0, 0.0, 0.0, 1.6775380766853523E9, 0.0, 2023-02-27 14:47:56.685
25.0, 3950.4026115420597, 2179.0715669478855, 996.6419335176867, 2608.694447123343, -5733.13304580844, -4954.577082941185, -1045.7710678304516, -758.7076137909429, 0.20800000000000002, -0.752, 0.678, 192.0, 6.0, 128.0, 232.0, 128.0, 21.0, 48.0, 0.0, 0.0, 0.0, 1.6775380766853595E9, 0.0, 2023-02-27 14:47:56.685
26.0, 3947.87686441861, 2178.3563111253156, 996.5078230509548, 2605.6546098774206, -5721.241917758217, -4946.2175305149, -1045.6369573637196, -762.1274306926049, 0.20800000000000002, -0.752, 0.678, 192.0, 0.0, 0.0, 0.0, 0.0, 0.0, 0.0, 0.0, 0.0, 0.0, 1.6775380766853669E9, 0.0, 2023-02-27 14:47:56.685
27.0, 3948.681527219001, 2178.199848914129, 996.4184160731336, 2607.107473267016, -5729.959098095786, -4941.389553712554, -1045.7040125970857, -760.5851603251888, 0.20800000000000002, -0.752, 0.678, 192.0, 0.0, 0.0, 0.0, 0.0, 0.0, 0.0, 0.0, 0.0, 0.0, 1.6775380766853738E9, 0.0, 2023-02-27 14:47:56.685
28.0, 3951.1178673646295, 2179.7197675370894, 997.5360032958989, 2611.6672291358987, -5736.03877258763, -4947.133952037568, -1045.7263643415408, -755.9807009673955, 0.20800000000000002, -0.752, 0.678, 192.0, 0.0, 0.0, 0.0, 0.0, 0.0, 0.0, 0.0, 0.0, 0.0, 1.6775380766853807E9, 0.0, 2023-02-27 14:47:56.685
29.0, 3948.9050446635542, 2180.3903198707485, 997.759520740452, 2608.2027087453257, -5741.067915090074, -4954.398268985542, -1047.1568759866807, -755.4219073560128, 0.20800000000000002, -0.752, 0.678, 192.0, 0.0, 0.0, 0.0, 0.0, 0.0, 0.0, 0.0, 0.0, 0.0, 1.6775380766853878E9, 0.0, 2023-02-27 14:47:56.685
30.0, 3952.4142685430375, 2183.3631018833044, 999.3017911078682, 2603.5311941541668, -5746.432333759348, -4951.045507317246, -1046.7321928420297, -756.9865294678843, 0.20800000000000002, -0.752, 0.678, 192.0, 0.0, 0.0, 0.0, 0.0, 0.0, 0.0, 0.0, 0.0, 0.0, 1.6775380766853948E9, 0.0, 2023-02-27 14:47:56.685
31.0, 3959.097440135174, 2184.637151317257, 999.6594190191531, 2605.22992673277, -5742.699592435311, -4964.590664457162, -1044.1170387407587, -756.9194742345184, 0.20800000000000002, -0.752, 0.678, 192.0, 0.0, 0.0, 0.0, 0.0, 0.0, 0.0, 0.0, 0.0, 0.0, 1.6775380766854024E9, 0.0, 2023-02-27 14:47:56.685
32.0, 3962.8301814592105, 2186.738215296056, 1000.7323027530078, 2607.9121360674067, -5742.297261035116, -4974.872466906603, -1041.8595125507727, -758.3052823907474, 0.20800000000000002, -0.752, 0.678, 192.0, 0.0, 0.0, 0.0, 0.0, 0.0, 0.0, 0.0, 0.0, 0.0, 1.6775380766854236E9, 0.0, 2023-02-27 14:47:56.685
33.0, 3962.0255186588192, 2188.1463751967403, 1000.9558201975609, 2607.196880244837, -5743.370144768971, -4961.751992911339, -1044.2287974630353, -757.7017852904542, 0.20800000000000002, -0.752, 0.678, 192.0, 0.0, 0.0, 0.0, 0.0, 0.0, 0.0, 0.0, 0.0, 0.0, 1.6775380766854312E9, 0.0, 2023-02-27 14:47:56.685
34.0, 3952.6601377320458, 2185.4641658621035, 1000.4193783306335, 2604.648781376932, -5739.6374034449345, -4926.525643649775, -1046.307509697379, -759.6016835691552, 0.20800000000000002, -0.752, 0.678, 192.0, 0.0, 0.0, 0.0, 0.0, 0.0, 0.0, 0.0, 0.0, 0.0, 1.677538076685438E9, 0.0, 2023-02-27 14:47:56.685
35.0, 3955.9905476558865, 2184.9500757396313, 1001.4475585755777, 2607.5098046672115, -5739.436237744837, -4908.979524252359, -1041.9712712730493, -760.67456730301, 0.20400000000000001, -0.76, 0.684, 192.0, 6.0, 96.0, 232.0, 64.0, 21.0, 96.0, 0.0, 0.0, 0.0, 1.6775380766854453E9, 0.0, 2023-02-27 14:47:56.685
36.0, 3961.422021558526, 2182.424328616182, 999.6594190191531, 2609.1414820124487, -5750.477999505759, -4924.6704488599835, -1043.2453207070018, -759.6910905469764, 0.20400000000000001, -0.76, 0.684, 192.0, 0.0, 0.0, 0.0, 0.0, 0.0, 0.0, 0.0, 0.0, 0.0, 1.6775380766854537E9, 0.0, 2023-02-27 14:47:56.685
37.0, 3966.6299780166128, 2188.4369478746594, 1002.6545527761642, 2610.7284558687757, -5755.820066430577, -4934.795789098238, -1040.9654427725604, -754.8854654890854, 0.20400000000000001, -0.76, 0.684, 192.0, 0.0, 0.0, 0.0, 0.0, 0.0, 0.0, 0.0, 0.0, 0.0, 1.6775380766854608E9, 0.0, 2023-02-27 14:47:56.685
38.0, 3952.391916798582, 2187.766395541, 1002.5427940538876, 2602.2794964646696, -5774.126145139474, -4937.165074010501, -1042.5747683733425, -756.2042184119485, 0.20400000000000001, -0.76, 0.684, 192.0, 0.0, 0.0, 0.0, 0.0, 0.0, 0.0, 0.0, 0.0, 0.0, 1.677538076685468E9, 0.0, 2023-02-27 14:47:56.685
39.0, 3945.552282995258, 2186.1347181957626, 1002.3863318427005, 2599.7537493412196, -5790.375863358482, -4938.908510078015, -1042.753582328985, -754.7513550223536, 0.20400000000000001, -0.76, 0.684, 192.0, 0.0, 0.0, 0.0, 0.0, 0.0, 0.0, 0.0, 0.0, 0.0, 1.6775380766854749E9, 0.0, 2023-02-27 14:47:56.685
40.0, 3941.327803293205, 2179.6303605592684, 998.0277416739157, 2604.9617057993064, -5764.649005490423, -4939.5790624116735, -1047.1568759866807, -754.0584509442391, 0.20400000000000001, -0.76, 0.684, 192.0, 0.0, 0.0, 0.0, 0.0, 0.0, 0.0, 0.0, 0.0, 0.0, 1.6775380766854818E9, 0.0, 2023-02-27 14:47:56.685
41.0, 3935.1140183346297, 2177.4622413471034, 997.3795410847117, 2609.8567378350185, -5717.5091764341805, -4953.079516062679, -1048.788553331918, -754.930168977996, 0.20400000000000001, -0.76, 0.684, 192.0, 0.0, 0.0, 0.0, 0.0, 0.0, 0.0, 0.0, 0.0, 0.0, 1.6775380766854887E9, 0.0, 2023-02-27 14:47:56.685
42.0, 3927.7602944088335, 2176.836392502355, 998.2065556295581, 2603.79941508763, -5722.985353825731, -4960.857923133126, -1048.3191666983566, -758.3723376241134, 0.20400000000000001, -0.76, 0.684, 192.0, 0.0, 0.0, 0.0, 0.0, 0.0, 0.0, 0.0, 0.0, 0.0, 1.677538076685496E9, 0.0, 2023-02-27 14:47:56.685
43.0, 3925.1898437964733, 2176.121136679785, 998.9218114521279, 2601.854813320019, -5735.547034209613, -4948.832684616171, -1048.3415184428118, -757.9029509905519, 0.20400000000000001, -0.76, 0.684, 192.0, 0.0, 0.0, 0.0, 0.0, 0.0, 0.0, 0.0, 0.0, 0.0, 1.6775380766855042E9, 0.0, 2023-02-27 14:47:56.685
44.0, 3922.038247828275, 2172.9471889671313, 998.6088870297536, 2606.906307566918, -5734.362391753482, -4952.476018962386, -1049.727326599041, -755.9807009673955, 0.20400000000000001, -0.76, 0.684, 192.0, 0.0, 0.0, 0.0, 0.0, 0.0, 0.0, 0.0, 0.0, 0.0, 1.677538076685511E9, 0.0, 2023-02-27 14:47:56.685
45.0, 3911.5329279342805, 2167.403956342215, 995.8596224617509, 2610.8625663355074, -5723.588850926024, -4943.222396757888, -1053.7059371120856, -758.640558557577, 0.20800000000000002, -0.756, 0.684, 192.0, 6.0, 128.0, 232.0, 96.0, 21.0, 96.0, 0.0, 0.0, 0.0, 1.677538076685518E9, 0.0, 2023-02-27 14:47:56.685
46.0, 3909.945954077954, 2167.180438897662, 996.1278433952145, 2608.4709296787896, -5722.672429403357, -4923.619916870584, -1054.108268512281, -761.0098434698396, 0.20800000000000002, -0.756, 0.684, 192.0, 0.0, 0.0, 0.0, 0.0, 0.0, 0.0, 0.0, 0.0, 0.0, 1.6775380766855257E9, 0.0, 2023-02-27 14:47:56.685
47.0, 3907.330799976683, 2168.186267398151, 997.5136515514436, 2605.9004790664294, -5731.076685318552, -4923.664620359495, -1053.7729923454515, -760.4063463695463, 0.20800000000000002, -0.756, 0.684, 192.0, 0.0, 0.0, 0.0, 0.0, 0.0, 0.0, 0.0, 0.0, 0.0, 1.6775380766855326E9, 0.0, 2023-02-27 14:47:56.685
48.0, 3904.112148775119, 2166.9792731975645, 997.7371689959966, 2609.2085372458146, -5737.782208655144, -4932.493559419341, -1053.7059371120856, -759.1099451911384, 0.20800000000000002, -0.756, 0.684, 192.0, 0.0, 0.0, 0.0, 0.0, 0.0, 0.0, 0.0, 0.0, 0.0, 1.677538076685546E9, 0.0, 2023-02-27 14:47:56.685
49.0, 3912.0246663122975, 2168.186267398151, 998.497128307477, 2612.1142640250046, -5746.722906437267, -4932.381800697065, -1053.080088267337, -757.031232956795, 0.20800000000000002, -0.756, 0.684, 192.0, 0.0, 0.0, 0.0, 0.0, 0.0, 0.0, 0.0, 0.0, 0.0, 1.6775380766855528E9, 0.0, 2023-02-27 14:47:56.685
50.0, 3911.6670384010126, 2168.990930198542, 999.0559219188598, 2608.13565351196, -5750.7909239281325, -4934.795789098238, -1053.7729923454515, -758.7523172798535, 0.20800000000000002, -0.756, 0.684, 192.0, 0.0, 0.0, 0.0, 0.0, 0.0, 0.0, 0.0, 0.0, 0.0, 1.67753807668556E9, 0.0, 2023-02-27 14:47:56.685
51.0, 3904.358017964127, 2167.471011575581, 997.7148172515414, 2602.3689034424906, -5741.6937639348225, -4941.233091501366, -1054.465896423566, -760.5628085807334, 0.20800000000000002, -0.756, 0.684, 192.0, 0.0, 0.0, 0.0, 0.0, 0.0, 0.0, 0.0, 0.0, 0.0, 1.677538076685567E9, 0.0, 2023-02-27 14:47:56.685
52.0, 3907.8001866102445, 2168.186267398151, 996.8430992177844, 2605.431092432868, -5728.953269595298, -4946.239882259355, -1052.20837023358, -760.3392911361803, 0.20800000000000002, -0.756, 0.684, 192.0, 0.0, 0.0, 0.0, 0.0, 0.0, 0.0, 0.0, 0.0, 0.0, 1.6775380766855736E9, 0.0, 2023-02-27 14:47:56.685
53.0, 3907.710779632423, 2167.739232509045, 998.3630178407452, 2610.549641913133, -5731.590775441025, -4952.230149773378, -1051.5601696443762, -756.8524190011525, 0.20800000000000002, -0.756, 0.684, 192.0, 0.0, 0.0, 0.0, 0.0, 0.0, 0.0, 0.0, 0.0, 0.0, 1.6775380766855805E9, 0.0, 2023-02-27 14:47:56.685
54.0, 3906.2579162428283, 2165.5934650413355, 998.2065556295581, 2610.4378831908566, -5728.953269595298, -4945.748143881338, -1053.884751067728, -756.8077155122419, 0.20800000000000002, -0.756, 0.684, 192.0, 0.0, 0.0, 0.0, 0.0, 0.0, 0.0, 0.0, 0.0, 0.0, 1.6775380766855876E9, 0.0, 2023-02-27 14:47:56.685
55.0, 3908.9624773219202, 2164.833505729855, 996.954857940061, 2606.3028104666246, -5727.858034116988, -4938.394419955543, -1054.1306202567364, -761.2110091699374, 0.212, -0.76, 0.678, 192.0, 6.0, 160.0, 232.0, 64.0, 21.0, 48.0, 0.0, 0.0, 0.0, 1.6775380766855943E9, 0.0, 2023-02-27 14:47:56.685
56.0, 3913.835157613177, 2164.47587781857, 996.4184160731336, 2605.721665110787, -5733.311859764083, -4944.250577002833, -1054.242378979013, -759.8699045026189, 0.212, -0.76, 0.678, 192.0, 0.0, 0.0, 0.0, 0.0, 0.0, 0.0, 0.0, 0.0, 0.0, 1.677538076685602E9, 0.0, 2023-02-27 14:47:56.685
57.0, 3915.8244628697, 2165.414651085693, 997.3348375958011, 2608.9626680568063, -5735.099999320508, -4957.214588786911, -1051.3590039442784, -755.5336660782893, 0.212, -0.76, 0.678, 192.0, 0.0, 0.0, 0.0, 0.0, 0.0, 0.0, 0.0, 0.0, 0.0, 1.6775380766856089E9, 0.0, 2023-02-27 14:47:56.685
58.0, 3915.466834958415, 2170.399090099226, 1000.6205440307313, 2606.9510110558285, -5734.407095242393, -4979.74514719786, -1048.9226637986499, -753.0973259326609, 0.212, -0.76, 0.678, 192.0, 0.0, 0.0, 0.0, 0.0, 0.0, 0.0, 0.0, 0.0, 0.0, 1.677538076685616E9, 0.0, 2023-02-27 14:47:56.685
59.0, 3912.292887245761, 2168.9685784540866, 998.6535905186643, 2601.3630749420017, -5738.4080574998925, -4957.371050998098, -1052.3648324447672, -756.6289015565994, 0.212, -0.76, 0.678, 192.0, 0.0, 0.0, 0.0, 0.0, 0.0, 0.0, 0.0, 0.0, 0.0, 1.6775380766856227E9, 0.0, 2023-02-27 14:47:56.685
60.0, 3907.1519860210406, 2164.185305140651, 996.7313404955079, 2605.676961621876, -5739.123313322462, -4913.226355698866, -1056.20933249108, -756.5841980676888, 0.212, -0.76, 0.678, 192.0, 0.0, 0.0, 0.0, 0.0, 0.0, 0.0, 0.0, 0.0, 0.0, 1.67753807668563E9, 0.0, 2023-02-27 14:47:56.685
61.0, 3912.0917215456634, 2164.542933051936, 997.2230788735246, 2610.5943454020435, -5741.582005212546, -4923.731675592861, -1056.2540359799905, -754.7290032778983, 0.212, -0.76, 0.678, 192.0, 0.0, 0.0, 0.0, 0.0, 0.0, 0.0, 0.0, 0.0, 0.0, 1.6775380766856368E9, 0.0, 2023-02-27 14:47:56.685
62.0, 3917.9031751040434, 2167.6945290201343, 998.6982940075749, 2609.968496557295, -5744.241862802728, -4947.491579948853, -1054.6894138681191, -753.0526224437502, 0.212, -0.76, 0.678, 192.0, 0.0, 0.0, 0.0, 0.0, 0.0, 0.0, 0.0, 0.0, 0.0, 1.677538076685644E9, 0.0, 2023-02-27 14:47:56.685
63.0, 3922.909965862032, 2169.437965087648, 1000.1735091416251, 2605.6099063885104, -5738.56451971108, -4933.968774553392, -1051.9625010445716, -756.0701079452167, 0.212, -0.76, 0.678, 192.0, 0.0, 0.0, 0.0, 0.0, 0.0, 0.0, 0.0, 0.0, 0.0, 1.6775380766856508E9, 0.0, 2023-02-27 14:47:56.685
64.0, 3927.1791490529954, 2171.4272703441707, 1001.0899306642928, 2604.4029121879234, -5743.258386046695, -4922.9046610480145, -1049.727326599041, -753.9466922219625, 0.212, -0.76, 0.678, 192.0, 0.0, 0.0, 0.0, 0.0, 0.0, 0.0, 0.0, 0.0, 0.0, 1.6775380766856673E9, 0.0, 2023-02-27 14:47:56.685
65.0, 3924.7875123962776, 2169.996758699031, 998.8771079632173, 2607.9568395563174, -5743.034868602142, -4915.170957466478, -1051.2919487109125, -752.382070110091, 0.216, -0.762, 0.678, 192.0, 6.0, 192.0, 232.0, 48.0, 21.0, 48.0, 0.0, 0.0, 0.0, 1.6775380766856742E9, 0.0, 2023-02-27 14:47:56.685
66.0, 3924.1840152959844, 2173.014244200497, 999.793529485885, 2610.7284558687757, -5730.808464385088, -4914.410998154998, -1050.3531754437895, -750.772744509309, 0.216, -0.762, 0.678, 192.0, 0.0, 0.0, 0.0, 0.0, 0.0, 0.0, 0.0, 0.0, 0.0, 1.6775380766856816E9, 0.0, 2023-02-27 14:47:56.685
67.0, 3930.6660211880235, 2178.3786628697712, 1002.6098492872536, 2603.1512144984263, -5731.076685318552, -4929.900757062525, -1046.821599819851, -748.4928665748677, 0.216, -0.762, 0.678, 192.0, 0.0, 0.0, 0.0, 0.0, 0.0, 0.0, 0.0, 0.0, 0.0, 1.6775380766856885E9, 0.0, 2023-02-27 14:47:56.685
68.0, 3940.1878643259843, 2182.6925495496453, 1004.2638783769463, 2598.2114789738034, -5737.513987721681, -4935.913376321003, -1042.9100445401723, -746.8611892296302, 0.216, -0.762, 0.678, 192.0, 0.0, 0.0, 0.0, 0.0, 0.0, 0.0, 0.0, 0.0, 0.0, 1.6775380766856954E9, 0.0, 2023-02-27 14:47:56.685
69.0, 3939.4055532700486, 2183.2289914165726, 1003.0568841763597, 2601.251316219725, -5743.750124424711, -4935.958079809914, -1043.848817807295, -745.7436020068649, 0.216, -0.762, 0.678, 192.0, 0.0, 0.0, 0.0, 0.0, 0.0, 0.0, 0.0, 0.0, 0.0, 1.6775380766857023E9, 0.0, 2023-02-27 14:47:56.685
70.0, 3940.6348992150906, 2184.391282128249, 1003.2580498764576, 2604.2911534656473, -5749.807447172099, -4937.925033321981, -1043.848817807295, -744.4248490840017, 0.216, -0.762, 0.678, 192.0, 0.0, 0.0, 0.0, 0.0, 0.0, 0.0, 0.0, 0.0, 0.0, 1.6775380766857114E9, 0.0, 2023-02-27 14:47:56.685
71.0, 3936.7680474243225, 2180.412671615204, 1001.3357998533011, 2602.1453859979374, -5738.117484821973, -4928.626707628573, -1047.3356899423231, -750.4821718313899, 0.216, -0.762, 0.678, 192.0, 0.0, 0.0, 0.0, 0.0, 0.0, 0.0, 0.0, 0.0, 0.0, 1.6775380766857183E9, 0.0, 2023-02-27 14:47:56.685
72.0, 3931.9847741108865, 2176.836392502355, 1000.2629161194463, 2601.206612730815, -5728.841510873021, -4921.87648080307, -1050.464934166066, -754.125506177605, 0.216, -0.762, 0.678, 192.0, 0.0, 0.0, 0.0, 0.0, 0.0, 0.0, 0.0, 0.0, 0.0, 1.6775380766857252E9, 0.0, 2023-02-27 14:47:56.685
73.0, 3935.2481288013614, 2177.4622413471034, 1002.1404626536921, 2606.615734888999, -5730.719057407267, -4931.331268707665, -1049.883788810228, -751.1750759095045, 0.216, -0.762, 0.678, 192.0, 0.0, 0.0, 0.0, 0.0, 0.0, 0.0, 0.0, 0.0, 0.0, 1.6775380766857324E9, 0.0, 2023-02-27 14:47:56.685
74.0, 3934.9575561234424, 2177.0152064579975, 1001.5593172978541, 2611.0860837800606, -5726.114598049474, -4930.794826840738, -1051.7836870889291, -749.8786747310967, 0.216, -0.762, 0.678, 192.0, 0.0, 0.0, 0.0, 0.0, 0.0, 0.0, 0.0, 0.0, 0.0, 1.6775380766857395E9, 0.0, 2023-02-27 14:47:56.685
75.0, 3931.9177188775207, 2174.087127934352, 999.3688463412341, 2609.4320546903677, -5722.873595103454, -4922.6140883700955, -1054.3988411902, -754.0584509442391, 0.212, -0.768, 0.67, 192.0, 6.0, 160.0, 232.0, 0.0, 20.0, 240.0, 0.0, 0.0, 0.0, 1.6775380766857464E9, 0.0, 2023-02-27 14:47:56.685
76.0, 3929.526082220803, 2170.6896627771453, 997.5807067848095, 2604.6040778880215, -5729.4226562288595, -4925.564518638196, -1053.0577365228817, -758.5511515797558, 0.212, -0.768, 0.67, 192.0, 0.0, 0.0, 0.0, 0.0, 0.0, 0.0, 0.0, 0.0, 0.0, 1.6775380766857538E9, 0.0, 2023-02-27 14:47:56.685
77.0, 3931.2695182883167, 2168.6780057761675, 996.9772096845162, 2608.046246534139, -5739.726810422756, -4929.185501239956, -1052.0295562779374, -758.1488201795603, 0.212, -0.768, 0.67, 192.0, 0.0, 0.0, 0.0, 0.0, 0.0, 0.0, 0.0, 0.0, 0.0, 1.6775380766857607E9, 0.0, 2023-02-27 14:47:56.685
78.0, 3934.8681491456214, 2170.5555523104135, 998.8324044743067, 2614.1259210259823, -5744.487731991736, -4930.839530329648, -1051.8283905778399, -752.3597183656358, 0.212, -0.768, 0.67, 192.0, 0.0, 0.0, 0.0, 0.0, 0.0, 0.0, 0.0, 0.0, 0.0, 1.6775380766857677E9, 0.0, 2023-02-27 14:47:56.685
79.0, 3931.4036287550484, 2171.4943255775365, 998.497128307477, 2612.7848163586636, -5736.932842365843, -4928.4255419284755, -1054.465896423566, -751.6221107986106, 0.212, -0.768, 0.67, 192.0, 0.0, 0.0, 0.0, 0.0, 0.0, 0.0, 0.0, 0.0, 0.0, 1.6775380766857746E9, 0.0, 2023-02-27 14:47:56.685
80.0, 3930.911890377032, 2170.8908284772433, 997.9606864405497, 2608.5379849121555, -5728.841510873021, -4924.849262815626, -1054.4435446791106, -754.5725410667111, 0.212, -0.768, 0.67, 192.0, 0.0, 0.0, 0.0, 0.0, 0.0, 0.0, 0.0, 0.0, 0.0, 1.6775380766857865E9, 0.0, 2023-02-27 14:47:56.685
81.0, 3930.3530967656493, 2168.8121162428997, 997.0889684067928, 2612.226022747281, -5721.398379969404, -4912.421692898476, -1056.20933249108, -754.0360991997837, 0.212, -0.768, 0.67, 192.0, 0.0, 0.0, 0.0, 0.0, 0.0, 0.0, 0.0, 0.0, 0.0, 1.6775380766857936E9, 0.0, 2023-02-27 14:47:56.685
82.0, 3935.337535779183, 2168.0745086758743, 996.0831399063039, 2616.6740198938874, -5725.086417804529, -4911.482919631353, -1057.7963063474067, -753.3431951216693, 0.212, -0.768, 0.67, 192.0, 0.0, 0.0, 0.0, 0.0, 0.0, 0.0, 0.0, 0.0, 0.0, 1.6775380766858003E9, 0.0, 2023-02-27 14:47:56.685
83.0, 3932.9906026113754, 2170.086165676852, 997.8936312071838, 2617.0092960607167, -5721.107807291485, -4927.911451806003, -1056.857533080284, -752.7173462769207, 0.212, -0.768, 0.67, 192.0, 0.0, 0.0, 0.0, 0.0, 0.0, 0.0, 0.0, 0.0, 0.0, 1.677538076685808E9, 0.0, 2023-02-27 14:47:56.685
84.0, 3936.1198468351186, 2172.9471889671313, 999.5923637857871, 2610.9296215688732, -5708.501423418692, -4939.601414156129, -1052.789515589418, -752.8961602325631, 0.212, -0.768, 0.67, 192.0, 0.0, 0.0, 0.0, 0.0, 0.0, 0.0, 0.0, 0.0, 0.0, 1.6775380766858149E9, 0.0, 2023-02-27 14:47:56.685
85.0, 3933.325878778205, 2168.8791714762656, 997.2677823624352, 2609.8790895794737, -5722.918298592365, -4934.549919909229, -1054.3094342123788, -753.0749741882056, 0.212, -0.768, 0.67, 192.0, 0.0, 0.0, 0.0, 0.0, 0.0, 0.0, 0.0, 0.0, 0.0, 1.6775380766858215E9, 0.0, 2023-02-27 14:47:56.685
86.0, 3930.5319107212918, 2167.4263080866704, 997.8042242293626, 2614.841176848552, -5738.206891799795, -4915.081550488657, -1054.622358634753, -749.6998607754542, 0.212, -0.764, 0.67, 192.0, 6.0, 160.0, 232.0, 32.0, 20.0, 240.0, 0.0, 0.0, 0.0, 1.6775380766858296E9, 0.0, 2023-02-27 14:47:56.685
87.0, 3925.7933408967665, 2166.822810986377, 997.8712794627285, 2616.7634268717084, -5734.429446986848, -4903.279829416255, -1055.0023382904933, -749.1410671640715, 0.212, -0.764, 0.67, 192.0, 0.0, 0.0, 0.0, 0.0, 0.0, 0.0, 0.0, 0.0, 0.0, 1.6775380766858373E9, 0.0, 2023-02-27 14:47:56.685
88.0, 3927.49207347537, 2168.6556540317124, 999.2570876189576, 2612.5165954252, -5713.932897321331, -4908.130157963056, -1053.1247917562475, -752.4044218545464, 0.212, -0.764, 0.67, 192.0, 0.0, 0.0, 0.0, 0.0, 0.0, 0.0, 0.0, 0.0, 0.0, 1.6775380766858442E9, 0.0, 2023-02-27 14:47:56.685
89.0, 3928.20732929794, 2167.7615842535, 998.6535905186643, 2611.644877391443, -5708.836699585521, -4901.4246346264645, -1053.8623993232727, -754.7513550223536, 0.212, -0.764, 0.67, 192.0, 0.0, 0.0, 0.0, 0.0, 0.0, 0.0, 0.0, 0.0, 0.0, 1.677538076685851E9, 0.0, 2023-02-27 14:47:56.685
90.0, 3931.716553177423, 2170.1085174213076, 999.5923637857871, 2615.511729182211, -5716.592754911513, -4899.524736347764, -1055.1364487572253, -750.3257096202028, 0.212, -0.764, 0.67, 192.0, 0.0, 0.0, 0.0, 0.0, 0.0, 0.0, 0.0, 0.0, 0.0, 1.677538076685858E9, 0.0, 2023-02-27 14:47:56.685
91.0, 3936.4104195130376, 2176.5234680799804, 1002.2298696315133, 2615.0646942931053, -5731.367257996471, -4919.373085424076, -1052.8565708227839, -744.737773506376, 0.212, -0.764, 0.67, 192.0, 0.0, 0.0, 0.0, 0.0, 0.0, 0.0, 0.0, 0.0, 0.0, 1.677538076685865E9, 0.0, 2023-02-27 14:47:56.685
92.0, 3944.3676405391266, 2180.189154170651, 1004.6215062882312, 2607.196880244837, -5744.823008158566, -4934.125236764578, -1048.20740797608, -746.7494305073536, 0.212, -0.764, 0.67, 192.0, 0.0, 0.0, 0.0, 0.0, 0.0, 0.0, 0.0, 0.0, 0.0, 1.677538076685872E9, 0.0, 2023-02-27 14:47:56.685
93.0, 3944.2782335613056, 2176.992854713542, 1003.4368638321, 2605.095816266038, -5744.666545947379, -4927.911451806003, -1048.4085736761779, -749.543398564267, 0.212, -0.764, 0.67, 192.0, 0.0, 0.0, 0.0, 0.0, 0.0, 0.0, 0.0, 0.0, 0.0, 1.6775380766858792E9, 0.0, 2023-02-27 14:47:56.685
94.0, 3935.2034253124507, 2172.4330988446595, 1001.7157795090413, 2610.974325057784, -5724.997010826709, -4923.888137804048, -1051.4037074331889, -748.805790997242, 0.212, -0.764, 0.67, 192.0, 0.0, 0.0, 0.0, 0.0, 0.0, 0.0, 0.0, 0.0, 0.0, 1.6775380766858861E9, 0.0, 2023-02-27 14:47:56.685
95.0, 3935.0246113568082, 2172.9024854782206, 1002.6769045206195, 2615.914060582407, -5713.239993243217, -4911.617030098085, -1052.5883498893202, -746.1459334070604, 0.212, -0.764, 0.67, 192.0, 0.0, 0.0, 0.0, 0.0, 0.0, 0.0, 0.0, 0.0, 0.0, 1.6775380766858933E9, 0.0, 2023-02-27 14:47:56.685
96.0, 3934.4434660009706, 2173.0365959449528, 1002.9451254540832, 2612.7401128697534, -5714.0446560436085, -4912.958134765403, -1052.789515589418, -748.7834392527866, 0.20800000000000002, -0.766, 0.676, 192.0, 6.0, 128.0, 232.0, 16.0, 21.0, 32.0, 0.0, 0.0, 0.0, 1.677538076685907E9, 0.0, 2023-02-27 14:47:56.685
97.0, 3937.34919278016, 2175.4505843461257, 1003.3474568542788, 2606.6380866334543, -5730.696705662812, -4923.30699244821, -1047.760373086974, -749.5881020531776, 0.20800000000000002, -0.766, 0.676, 192.0, 0.0, 0.0, 0.0, 0.0, 0.0, 0.0, 0.0, 0.0, 0.0, 1.6775380766859145E9, 0.0, 2023-02-27 14:47:56.685
98.0, 3941.3725067821156, 2176.7916890134443, 1004.3309336103123, 2608.649743634432, -5741.403191256904, -4926.525643649775, -1047.4250969201444, -744.9612909509291, 0.20800000000000002, -0.766, 0.676, 192.0, 0.0, 0.0, 0.0, 0.0, 0.0, 0.0, 0.0, 0.0, 0.0, 1.6775380766859217E9, 0.0, 2023-02-27 14:47:56.685
99.0, 3941.6407277155795, 2176.2999506354276, 1003.8838987212062, 2612.4271884473787, -5745.493560492225, -4937.299184477232, -1050.8449138218061, -744.0225176838062, 0.20800000000000002, -0.766, 0.676, 192.0, 0.0, 0.0, 0.0, 0.0, 0.0, 0.0, 0.0, 0.0, 0.0, 1.6775380766859288E9, 0.0, 2023-02-27 14:47:56.685
100.0, 3944.5688062392246, 2181.2843896489608, 1006.9460877115831, 2609.588516901555, -5748.131066337952, -4949.793809627749, -1047.7156695980632, -744.8495322286526, 0.20800000000000002, -0.766, 0.676, 192.0, 0.0, 0.0, 0.0, 0.0, 0.0, 0.0, 0.0, 0.0, 0.0, 1.6775380766859355E9, 0.0, 2023-02-27 14:47:56.685
101.0, 3944.5017510058588, 2182.2455146605394, 1006.9237359671279, 2601.653647619921, -5747.393458770926, -4958.26512077631, -1046.3298614418343, -747.1294101630939, 0.20800000000000002, -0.766, 0.676, 192.0, 0.0, 0.0, 0.0, 0.0, 0.0, 0.0, 0.0, 0.0, 0.0, 1.677538076685943E9, 0.0, 2023-02-27 14:47:56.685
102.0, 3943.428867272004, 2180.2338576595616, 1005.7390935109966, 2606.839252333552, -5732.954231852798, -4942.6859548909615, -1050.4425824216107, -745.6541950290436, 0.20800000000000002, -0.766, 0.676, 192.0, 0.0, 0.0, 0.0, 0.0, 0.0, 0.0, 0.0, 0.0, 0.0, 1.6775380766859496E9, 0.0, 2023-02-27 14:47:56.685
103.0, 3937.5727102247133, 2176.5905233133462, 1004.1744713991251, 2612.203671002826, -5729.4226562288595, -4926.637402372051, -1055.047041779404, -743.7095932614319, 0.20800000000000002, -0.766, 0.676, 192.0, 0.0, 0.0, 0.0, 0.0, 0.0, 0.0, 0.0, 0.0, 0.0, 1.6775380766859567E9, 0.0, 2023-02-27 14:47:56.685
104.0, 3934.7787421678, 2175.38352911276, 1003.9733056990274, 2610.1920140018483, -5734.071819075563, -4926.3691814385875, -1055.6505388796973, -745.8553607291414, 0.20800000000000002, -0.766, 0.676, 192.0, 0.0, 0.0, 0.0, 0.0, 0.0, 0.0, 0.0, 0.0, 0.0, 1.6775380766859636E9, 0.0, 2023-02-27 14:47:56.685
105.0, 3936.611585213135, 2176.4340611021594, 1005.3814655997116, 2606.079293022072, -5735.815255143078, -4932.895890819537, -1053.30360571189, -748.9846049528844, 0.20800000000000002, -0.766, 0.676, 192.0, 0.0, 0.0, 0.0, 0.0, 0.0, 0.0, 0.0, 0.0, 0.0, 1.6775380766859703E9, 0.0, 2023-02-27 14:47:56.685
106.0, 3933.8623206451325, 2174.4000523567265, 1005.4485208330776, 2609.655572134921, -5736.6422696879235, -4917.763759823294, -1052.9683295450604, -747.0847066741833, 0.218, -0.762, 0.682, 192.0, 6.0, 208.0, 232.0, 48.0, 21.0, 80.0, 0.0, 0.0, 0.0, 1.677538077165658E9, 0.0, 2023-02-27 14:47:57.165
107.0, 3933.2141200559286, 2171.38256685526, 1003.8168434878402, 2615.288211737658, -5733.423618486359, -4915.2603644443, -1054.6894138681191, -744.514256061823, 0.218, -0.762, 0.682, 192.0, 0.0, 0.0, 0.0, 0.0, 0.0, 0.0, 0.0, 0.0, 0.0, 1.6775380771657145E9, 0.0, 2023-02-27 14:47:57.165
108.0, 3934.689335189979, 2172.5001540780254, 1003.2804016209128, 2613.164796014404, -5745.672374447868, -4926.25742271631, -1056.2763877244458, -744.3354421061805, 0.218, -0.762, 0.682, 192.0, 0.0, 0.0, 0.0, 0.0, 0.0, 0.0, 0.0, 0.0, 0.0, 1.6775380771657329E9, 0.0, 2023-02-27 14:47:57.165
109.0, 3935.5610532237356, 2174.958845968109, 1005.0461894328821, 2607.8674325784964, -5743.772476169166, -4934.080533275668, -1054.4435446791106, -747.3082241187363, 0.218, -0.762, 0.682, 192.0, 0.0, 0.0, 0.0, 0.0, 0.0, 0.0, 0.0, 0.0, 0.0, 1.6775380771657436E9, 0.0, 2023-02-27 14:47:57.165
110.0, 3936.656288702046, 2177.7528140250224, 1007.8178057453401, 2609.4097029459126, -5733.580080697547, -4935.801617598727, -1051.4037074331889, -744.1342764060827, 0.218, -0.762, 0.682, 192.0, 0.0, 0.0, 0.0, 0.0, 0.0, 0.0, 0.0, 0.0, 0.0, 1.6775380771657548E9, 0.0, 2023-02-27 14:47:57.165
111.0, 3935.650460201557, 2176.6575785467126, 1005.5379278108989, 2611.711932624809, -5734.161226053385, -4943.065934546702, -1052.4765911670436, -743.4860758168788, 0.218, -0.762, 0.682, 192.0, 0.0, 0.0, 0.0, 0.0, 0.0, 0.0, 0.0, 0.0, 0.0, 1.6775380771657655E9, 0.0, 2023-02-27 14:47:57.165
112.0, 3935.650460201557, 2178.4680698475922, 1006.208480144558, 2612.0472087916387, -5745.962947125787, -4941.680126390473, -1052.4542394225884, -741.5638257937225, 0.218, -0.762, 0.682, 192.0, 0.0, 0.0, 0.0, 0.0, 0.0, 0.0, 0.0, 0.0, 0.0, 1.6775380771658125E9, 0.0, 2023-02-27 14:47:57.165
113.0, 3938.06444860273, 2178.7809942699664, 1007.8625092342508, 2608.426226189879, -5752.690822206834, -4929.565480895696, -1053.6388818787195, -741.6308810270883, 0.218, -0.762, 0.682, 192.0, 0.0, 0.0, 0.0, 0.0, 0.0, 0.0, 0.0, 0.0, 0.0, 1.677538077165823E9, 0.0, 2023-02-27 14:47:57.165
114.0, 3935.9186811350205, 2173.5059825785142, 1004.3309336103123, 2607.8674325784964, -5739.7044586783, -4926.860919816604, -1057.4163266916664, -746.0118229403286, 0.218, -0.762, 0.682, 192.0, 0.0, 0.0, 0.0, 0.0, 0.0, 0.0, 0.0, 0.0, 0.0, 1.6775380771658332E9, 0.0, 2023-02-27 14:47:57.165
115.0, 3930.6436694435683, 2168.0745086758743, 1002.4086835871558, 2613.4330169478676, -5731.4790167187475, -4926.324477949676, -1059.852666837295, -747.1294101630939, 0.218, -0.762, 0.682, 192.0, 0.0, 0.0, 0.0, 0.0, 0.0, 0.0, 0.0, 0.0, 0.0, 1.6775380771658432E9, 0.0, 2023-02-27 14:47:57.165
116.0, 3932.4988642333587, 2169.3038546209164, 1004.0627126768486, 2616.495205938245, -5741.291432534627, -4933.477036175374, -1058.623320892253, -744.156628150538, 0.20800000000000002, -0.762, 0.682, 192.0, 6.0, 128.0, 232.0, 48.0, 21.0, 80.0, 0.0, 0.0, 0.0, 1.6775380771658533E9, 0.0, 2023-02-27 14:47:57.165
117.0, 3936.455123001948, 2170.66731103269, 1005.1802998996139, 2610.0802552795717, -5744.197159313818, -4927.196195983433, -1056.499905168999, -744.0672211727168, 0.20800000000000002, -0.762, 0.682, 192.0, 0.0, 0.0, 0.0, 0.0, 0.0, 0.0, 0.0, 0.0, 0.0, 1.6775380771658645E9, 0.0, 2023-02-27 14:47:57.165
118.0, 3935.337535779183, 2171.8743052332766, 1004.8450237327843, 2607.5098046672115, -5741.559653468091, -4924.066951759691, -1055.8070010908843, -745.7659537513201, 0.20800000000000002, -0.762, 0.682, 192.0, 0.0, 0.0, 0.0, 0.0, 0.0, 0.0, 0.0, 0.0, 0.0, 1.6775380771658752E9, 0.0, 2023-02-27 14:47:57.165
119.0, 3939.7855329257886, 2176.0093779575086, 1006.9013842226725, 2610.8402145910522, -5753.1378570959405, -4948.095077049145, -1054.7341173570296, -740.8262182266973, 0.20800000000000002, -0.762, 0.682, 192.0, 0.0, 0.0, 0.0, 0.0, 0.0, 0.0, 0.0, 0.0, 0.0, 1.677538077165886E9, 0.0, 2023-02-27 14:47:57.165
120.0, 3939.606718970146, 2177.1269651802736, 1008.6895237790972, 2612.0248570471836, -5750.142723338929, -4971.497353493852, -1050.3308236993341, -737.9428431919627, 0.20800000000000002, -0.762, 0.682, 192.0, 0.0, 0.0, 0.0, 0.0, 0.0, 0.0, 0.0, 0.0, 0.0, 1.6775380771658964E9, 0.0, 2023-02-27 14:47:57.165
121.0, 3931.3365735216826, 2172.388395355749, 1006.2308318890133, 2608.8285575900745, -5735.077647576052, -4947.625690415584, -1052.0072045334823, -744.2460351283593, 0.20800000000000002, -0.762, 0.682, 192.0, 0.0, 0.0, 0.0, 0.0, 0.0, 0.0, 0.0, 0.0, 0.0, 1.6775380771659071E9, 0.0, 2023-02-27 14:47:57.165
122.0, 3931.738904921878, 2171.762546511, 1004.9567824550609, 2605.9898860442504, -5739.100961578008, -4926.033905271757, -1054.4882481680213, -747.3305758631916, 0.20800000000000002, -0.762, 0.682, 192.0, 0.0, 0.0, 0.0, 0.0, 0.0, 0.0, 0.0, 0.0, 0.0, 1.6775380771659176E9, 0.0, 2023-02-27 14:47:57.165
123.0, 3934.8010939122555, 2173.617741300791, 1006.8119772448513, 2612.2483744917363, -5743.638365702434, -4915.729751077861, -1051.0684312663593, -744.2460351283593, 0.20800000000000002, -0.762, 0.682, 192.0, 0.0, 0.0, 0.0, 0.0, 0.0, 0.0, 0.0, 0.0, 0.0, 1.6775380771659276E9, 0.0, 2023-02-27 14:47:57.165
124.0, 3933.974079367409, 2172.5001540780254, 1005.8732039777284, 2615.3329152265687, -5746.052354103608, -4922.2117569699, -1052.7448121005073, -743.2402066278704, 0.20800000000000002, -0.762, 0.682, 192.0, 0.0, 0.0, 0.0, 0.0, 0.0, 0.0, 0.0, 0.0, 0.0, 1.677538077165938E9, 0.0, 2023-02-27 14:47:57.165
125.0, 3937.5056549913475, 2175.897619235232, 1007.3484191117788, 2611.354304713524, -5745.314746536583, -4939.221434500389, -1051.1578382441805, -744.3577938506357, 0.20800000000000002, -0.762, 0.682, 192.0, 0.0, 0.0, 0.0, 0.0, 0.0, 0.0, 0.0, 0.0, 0.0, 1.6775380771659477E9, 0.0, 2023-02-27 14:47:57.165
126.0, 3943.786495183289, 2179.608008814813, 1008.6448202901865, 2605.5652028995996, -5743.884234891443, -4959.516818465808, -1048.3638701872671, -746.0341746847838, 0.21, -0.756, 0.678, 192.0, 6.0, 144.0, 232.0, 96.0, 21.0, 48.0, 0.0, 0.0, 0.0, 1.6775380771659575E9, 0.0, 2023-02-27 14:47:57.165
127.0, 3943.6970882054675, 2177.484593091559, 1006.6778667781194, 2609.588516901555, -5729.579118440047, -4955.202931785933, -1049.1685329876582, -745.318918862214, 0.21, -0.756, 0.678, 192.0, 0.0, 0.0, 0.0, 0.0, 0.0, 0.0, 0.0, 0.0, 0.0, 1.6775380771660552E9, 0.0, 2023-02-27 14:47:57.166
128.0, 3941.9536521379537, 2175.7411570240447, 1005.7614452554519, 2617.2998687386357, -5723.812368370577, -4933.968774553392, -1050.4425824216107, -741.6085292826331, 0.21, -0.756, 0.678, 192.0, 0.0, 0.0, 0.0, 0.0, 0.0, 0.0, 0.0, 0.0, 0.0, 1.6775380771660964E9, 0.0, 2023-02-27 14:47:57.166
129.0, 3939.1373323365847, 2175.0929564348407, 1005.4485208330776, 2615.4670256933005, -5728.260365517183, -4926.860919816604, -1052.0295562779374, -742.0332124272838, 0.21, -0.756, 0.678, 192.0, 0.0, 0.0, 0.0, 0.0, 0.0, 0.0, 0.0, 0.0, 0.0, 1.6775380771661048E9, 0.0, 2023-02-27 14:47:57.166
130.0, 3936.164550324029, 2173.058947689408, 1004.6885615215972, 2610.5049384242225, -5732.864824874977, -4910.030056241758, -1052.275425466946, -746.4365060849793, 0.21, -0.756, 0.678, 192.0, 0.0, 0.0, 0.0, 0.0, 0.0, 0.0, 0.0, 0.0, 0.0, 1.6775380771661124E9, 0.0, 2023-02-27 14:47:57.166
131.0, 3937.706820691445, 2173.327168622872, 1005.8508522332731, 2612.874223336485, -5739.972679611765, -4909.985352752848, -1050.2861202104236, -744.514256061823, 0.21, -0.756, 0.678, 192.0, 0.0, 0.0, 0.0, 0.0, 0.0, 0.0, 0.0, 0.0, 0.0, 1.6775380771661196E9, 0.0, 2023-02-27 14:47:57.166
132.0, 3936.3433642796713, 2171.091994177341, 1006.0743696778262, 2618.0598280501163, -5732.350734752505, -4914.947440021925, -1050.6660998661637, -742.703764760943, 0.21, -0.756, 0.678, 192.0, 0.0, 0.0, 0.0, 0.0, 0.0, 0.0, 0.0, 0.0, 0.0, 1.6775380771661267E9, 0.0, 2023-02-27 14:47:57.166
133.0, 3935.1587218235404, 2169.9744069545754, 1005.403817344167, 2616.4057989604235, -5729.579118440047, -4925.07278026018, -1051.6719283666525, -742.1673228940157, 0.21, -0.756, 0.678, 192.0, 0.0, 0.0, 0.0, 0.0, 0.0, 0.0, 0.0, 0.0, 0.0, 1.677538077166134E9, 0.0, 2023-02-27 14:47:57.166
134.0, 3940.679602704001, 2172.8801337337654, 1006.9237359671279, 2610.303772724125, -5732.261327774683, -4929.878405318071, -1049.1685329876582, -743.8884072170744, 0.21, -0.756, 0.678, 192.0, 0.0, 0.0, 0.0, 0.0, 0.0, 0.0, 0.0, 0.0, 0.0, 1.6775380771661415E9, 0.0, 2023-02-27 14:47:57.166
135.0, 3945.0158411283305, 2173.7742035119777, 1007.9742679565273, 2612.0919122805494, -5731.143740551918, -4919.2613267018, -1047.559207386876, -742.5025990608453, 0.21, -0.756, 0.678, 192.0, 0.0, 0.0, 0.0, 0.0, 0.0, 0.0, 0.0, 0.0, 0.0, 1.677538077166149E9, 0.0, 2023-02-27 14:47:57.166
136.0, 3943.7194399499226, 2171.471973833081, 1006.4543493335664, 2616.0928745380493, -5733.46832197527, -4919.082512746157, -1049.9061405546834, -742.3014333607475, 0.21, -0.76, 0.676, 192.0, 6.0, 144.0, 232.0, 64.0, 21.0, 32.0, 0.0, 0.0, 0.0, 1.6775380771661563E9, 0.0, 2023-02-27 14:47:57.166
137.0, 3945.2840620617944, 2173.997720956531, 1006.1414249111921, 2616.85283384953, -5738.765685411177, -4922.636440114551, -1049.727326599041, -741.7649914938202, 0.21, -0.76, 0.676, 192.0, 0.0, 0.0, 0.0, 0.0, 0.0, 0.0, 0.0, 0.0, 0.0, 1.6775380771661644E9, 0.0, 2023-02-27 14:47:57.166
138.0, 3946.8263324292107, 2173.863610489799, 1004.1521196546698, 2609.096778523538, -5743.526606980158, -4931.666544874495, -1049.8614370657726, -746.5706165517112, 0.21, -0.76, 0.676, 192.0, 0.0, 0.0, 0.0, 0.0, 0.0, 0.0, 0.0, 0.0, 0.0, 1.6775380771661718E9, 0.0, 2023-02-27 14:47:57.166
139.0, 3956.7281552229115, 2179.183325670162, 1007.2590121339575, 2607.5321564116666, -5742.252557546206, -4951.291376506255, -1046.106343997281, -744.4024973395465, 0.21, -0.76, 0.676, 192.0, 0.0, 0.0, 0.0, 0.0, 0.0, 0.0, 0.0, 0.0, 0.0, 1.6775380771661792E9, 0.0, 2023-02-27 14:47:57.166
140.0, 3957.6222250011238, 2180.5244303374807, 1008.4436545900887, 2611.130787268971, -5741.13497032344, -4953.414792229509, -1045.145218985703, -738.0993054031499, 0.21, -0.76, 0.676, 192.0, 0.0, 0.0, 0.0, 0.0, 0.0, 0.0, 0.0, 0.0, 0.0, 1.6775380771661863E9, 0.0, 2023-02-27 14:47:57.166
141.0, 3946.5581114957467, 2175.1153081792963, 1006.8566807337619, 2614.885880337463, -5739.927976122854, -4924.201062226422, -1046.7321928420297, -739.5298170482895, 0.21, -0.76, 0.676, 192.0, 0.0, 0.0, 0.0, 0.0, 0.0, 0.0, 0.0, 0.0, 0.0, 1.6775380771661935E9, 0.0, 2023-02-27 14:47:57.166
142.0, 3939.316146292227, 2170.376738354771, 1004.6885615215972, 2612.4271884473787, -5726.762798638678, -4911.482919631353, -1049.660271365675, -745.3636223511246, 0.21, -0.76, 0.676, 192.0, 0.0, 0.0, 0.0, 0.0, 0.0, 0.0, 0.0, 0.0, 0.0, 1.6775380771662009E9, 0.0, 2023-02-27 14:47:57.166
143.0, 3939.807884670244, 2169.706186021112, 1004.4426923325888, 2609.4097029459126, -5722.627725914446, -4917.182614467456, -1047.7380213425186, -748.3587561081358, 0.21, -0.76, 0.676, 192.0, 0.0, 0.0, 0.0, 0.0, 0.0, 0.0, 0.0, 0.0, 0.0, 1.6775380771662078E9, 0.0, 2023-02-27 14:47:57.166
144.0, 3943.87590216111, 2172.2319331445615, 1006.8566807337619, 2614.170624514893, -5723.208871270284, -4927.039733772246, -1045.3240329413454, -744.0225176838062, 0.21, -0.76, 0.676, 192.0, 0.0, 0.0, 0.0, 0.0, 0.0, 0.0, 0.0, 0.0, 0.0, 1.677538077166222E9, 0.0, 2023-02-27 14:47:57.166
145.0, 3945.105248106152, 2174.0647761898967, 1007.4825295785106, 2615.1764530153814, -5727.768627139167, -4942.417733957498, -1046.1957509751023, -740.6027007821442, 0.21, -0.76, 0.676, 192.0, 0.0, 0.0, 0.0, 0.0, 0.0, 0.0, 0.0, 0.0, 0.0, 1.6775380771662295E9, 0.0, 2023-02-27 14:47:57.166
146.0, 3943.942957394476, 2173.863610489799, 1006.789625500396, 2610.3708279574907, -5721.957173580787, -4934.684030375962, -1046.7098410975743, -744.737773506376, 0.20400000000000001, -0.764, 0.678, 192.0, 6.0, 96.0, 232.0, 32.0, 21.0, 48.0, 0.0, 0.0, 0.0, 1.6775380771662369E9, 0.0, 2023-02-27 14:47:57.166
